Data from Apollo_Calib_20240827__AbsoluteIrradiance__736__11-25-02-284.txt Node

Date: Wed Aug 28 11:25:02 BST 2024
User: biology
Spectrometer: FLMT08252
Trigger mode: 0
Integration Time (sec): 5.000000E-1
Scans to average: 5
Electric dark correction enabled: true
Nonlinearity correction enabled: false
Boxcar width: 0
XAxis mode: Wavelengths
Number of Pixels in Spectrum: 3648
>>>>>Begin Spectral Data<<<<<
179.588	-0
179.809	-0
180.03	-0
180.251	-0
180.473	-0
180.694	0
180.915	0
181.136	-0
181.357	0
181.578	-0
181.799	0
182.02	-0
182.241	-0
182.462	-0
182.683	0
182.904	-0
183.125	-0
183.346	0
183.567	0
183.788	0
184.009	0
184.23	0
184.451	0
184.672	-0
184.892	0
185.113	0
185.334	0
185.555	0
185.776	0
185.996	0
186.217	0
186.438	0
186.659	0
186.879	0
187.1	0
187.321	0
187.541	0
187.762	0
187.983	0
188.203	0
188.424	0
188.644	0
188.865	0
189.086	0
189.306	0
189.527	0
189.747	0
189.968	0
190.188	0
190.409	0
190.629	0
190.849	0
191.07	0
191.29	0
191.511	0
191.731	0
191.951	0
192.172	0
192.392	0
192.612	0
192.833	0
193.053	0
193.273	0
193.493	0
193.714	0
193.934	0
194.154	0
194.374	0
194.594	0
194.815	0
195.035	0
195.255	0
195.475	0
195.695	0
195.915	0
196.135	0
196.355	0
196.575	0
196.795	0
197.015	0
197.235	0
197.455	0
197.675	0
197.895	0
198.115	0
198.335	0
198.555	0
198.775	0
198.995	0
199.214	0
199.434	0
199.654	0
199.874	0
200.094	2.03
200.313	0.7
200.533	0.72
200.753	-0.42
200.973	2.13
201.192	1.15
201.412	0.14
201.632	0.44
201.851	1.39
202.071	0.1
202.291	0.23
202.51	-0.14
202.73	1.08
202.95	0.63
203.169	0.08
203.389	0.45
203.608	1
203.828	0.17
204.047	0.25
204.267	1.33
204.486	0.22
204.706	0.75
204.925	0.88
205.145	0.27
205.364	1.13
205.583	1.39
205.803	0.32
206.022	0.29
206.242	0.99
206.461	0.79
206.68	0.76
206.9	0.69
207.119	1
207.338	1.57
207.557	0.06
207.777	0.37
207.996	0.59
208.215	1.08
208.434	0.32
208.654	0.36
208.873	0.38
209.092	1.17
209.311	0.31
209.53	0.38
209.749	0.56
209.968	0.39
210.187	0.3
210.407	0.25
210.626	0.46
210.845	0.85
211.064	0.57
211.283	0.17
211.502	0.63
211.721	0.64
211.94	0.21
212.159	0.58
212.377	0.8
212.596	0.86
212.815	0.36
213.034	0.47
213.253	0.82
213.472	0.63
213.691	0.39
213.91	0.09
214.128	0.12
214.347	0.96
214.566	-0.18
214.785	-0.04
215.003	0.56
215.222	0.57
215.441	0.28
215.66	0.08
215.878	0.28
216.097	0.48
216.316	0.13
216.534	0.17
216.753	0.46
216.972	0.36
217.19	0.23
217.409	0.12
217.627	0.01
217.846	0.21
218.064	0.51
218.283	0.14
218.501	0.79
218.72	0.57
218.938	0.07
219.157	0.12
219.375	0.6
219.594	0.34
219.812	0.16
220.031	0.13
220.249	0.57
220.467	0.58
220.686	0.21
220.904	0.05
221.122	0.18
221.341	0.73
221.559	0.41
221.777	0.08
221.995	0.18
222.214	0.41
222.432	0.06
222.65	0.46
222.868	0.31
223.086	0.51
223.305	0.34
223.523	0.23
223.741	0.57
223.959	0.11
224.177	0.11
224.395	0.26
224.613	0.31
224.831	0.34
225.049	0.1
225.267	0.24
225.485	0.27
225.703	0.26
225.921	0.22
226.139	0.19
226.357	0.5
226.575	0.28
226.793	0.22
227.011	1.04
227.229	0.32
227.447	0.49
227.665	0.3
227.883	0.16
228.1	0.29
228.318	0.32
228.536	-0.03
228.754	0.11
228.972	0.38
229.189	0.3
229.407	0.24
229.625	0.16
229.843	0.49
230.06	0.42
230.278	0.13
230.496	0.24
230.713	0.32
230.931	0.45
231.149	0.22
231.366	0.08
231.584	0.12
231.801	0.62
232.019	0.1
232.236	0.03
232.454	0.04
232.671	0.27
232.889	0.16
233.106	0.11
233.324	0.31
233.541	0.15
233.759	0.24
233.976	0.14
234.194	0.27
234.411	0.19
234.628	0.14
234.846	0.22
235.063	0.23
235.28	0.28
235.498	0.17
235.715	0.03
235.932	0.36
236.149	0.22
236.367	0.13
236.584	0.24
236.801	0.13
237.018	0.38
237.236	0.19
237.453	-0.04
237.67	0.35
237.887	0.17
238.104	0.11
238.321	0.04
238.538	-0
238.755	0.28
238.973	0.01
239.19	0.21
239.407	0.34
239.624	0.22
239.841	0.05
240.058	0.03
240.275	0.31
240.492	0.13
240.709	0.21
240.925	0.12
241.142	0.15
241.359	0.12
241.576	0.07
241.793	0.07
242.01	0.21
242.227	0.31
242.444	0.19
242.66	0.29
242.877	0.21
243.094	0.11
243.311	0.15
243.527	0.08
243.744	0.2
243.961	0.3
244.178	0.03
244.394	0.11
244.611	0.25
244.828	0.37
245.044	0.02
245.261	0.2
245.477	0.13
245.694	0.25
245.911	0.21
246.127	0.21
246.344	0.34
246.56	0.17
246.777	0.1
246.993	0.09
247.21	0.2
247.426	0.3
247.643	0.11
247.859	0.1
248.076	0.1
248.292	0.42
248.508	0.09
248.725	0.17
248.941	0.18
249.157	0.32
249.374	0.09
249.59	0.1
249.806	0.17
250.023	0.36
250.239	0.05
250.455	0.14
250.671	0.2
250.888	0.18
251.104	0.28
251.32	0.16
251.536	0.12
251.752	0.12
251.969	0.17
252.185	0.1
252.401	0.32
252.617	0.12
252.833	0.18
253.049	0.19
253.265	0.2
253.481	0.16
253.697	0.13
253.913	0.05
254.129	0.13
254.345	0.19
254.561	0.09
254.777	0.18
254.993	0.26
255.209	0.17
255.425	0.11
255.641	0.12
255.857	0.27
256.073	0.2
256.288	0.01
256.504	0.04
256.72	0.2
256.936	0.32
257.152	0.18
257.367	0.09
257.583	0.2
257.799	0.17
258.015	0.1
258.23	0.06
258.446	0.33
258.662	0.23
258.877	0.09
259.093	0.14
259.309	0.15
259.524	0.17
259.74	0.09
259.955	0.04
260.171	0.2
260.387	0.13
260.602	0.24
260.818	0.15
261.033	0.09
261.249	0.15
261.464	0.08
261.68	0.05
261.895	0.17
262.11	0.15
262.326	0.15
262.541	0.01
262.757	0.22
262.972	0.18
263.187	0.15
263.403	0.13
263.618	0.19
263.833	0.11
264.049	0.08
264.264	0.17
264.479	0.17
264.694	0.28
264.91	0.02
265.125	0.1
265.34	0.2
265.555	0.25
265.77	0.15
265.986	0.09
266.201	0.16
266.416	0.2
266.631	0.14
266.846	0.15
267.061	0.24
267.276	0.16
267.491	0.03
267.706	0.2
267.921	0.21
268.136	0.17
268.351	0.08
268.566	0.02
268.781	0.22
268.996	0.19
269.211	0.13
269.426	0.1
269.641	0.14
269.856	0.25
270.071	0.11
270.285	0.07
270.5	0.2
270.715	0.24
270.93	0.09
271.145	0.1
271.359	0.18
271.574	0.15
271.789	0.12
272.004	0.11
272.218	0.15
272.433	0.16
272.648	0.13
272.862	0.19
273.077	0.15
273.292	0.1
273.506	0.06
273.721	0.09
273.936	0.16
274.15	0.24
274.365	0.11
274.579	0.15
274.794	0.18
275.008	0.17
275.223	0.03
275.437	0.07
275.652	0.15
275.866	0.12
276.081	0.15
276.295	0.21
276.509	0.16
276.724	0.1
276.938	0.14
277.153	0.15
277.367	0.18
277.581	0.13
277.796	0.12
278.01	0.04
278.224	0.19
278.438	0.21
278.653	0.08
278.867	0.08
279.081	-0.04
279.295	0.14
279.51	0.15
279.724	0.04
279.938	0.14
280.152	0.16
280.366	0.04
280.58	0.13
280.794	0.24
281.008	0.11
281.222	0.16
281.437	0.27
281.651	0.14
281.865	0.25
282.079	0.07
282.293	0.01
282.507	0.06
282.721	0.13
282.935	0.09
283.148	0.03
283.362	0.11
283.576	0.05
283.79	0.11
284.004	0.1
284.218	0.21
284.432	0.07
284.646	0.16
284.859	0.1
285.073	0.07
285.287	0.12
285.501	0.15
285.714	0.11
285.928	0.14
286.142	0.13
286.356	0.05
286.569	0.05
286.783	0.2
286.997	0.18
287.21	0.17
287.424	0.17
287.637	0.07
287.851	0.1
288.065	0.16
288.278	0.09
288.492	0.1
288.705	0.14
288.919	0.14
289.132	0.09
289.346	0.21
289.559	-0
289.773	0.07
289.986	0.07
290.2	0.11
290.413	0.18
290.626	0.08
290.84	0.12
291.053	0.13
291.267	0.22
291.48	0.09
291.693	0.04
291.906	0.11
292.12	0.1
292.333	0.05
292.546	0.07
292.76	0.21
292.973	0.11
293.186	0.16
293.399	0.08
293.612	0.18
293.826	0.09
294.039	0.1
294.252	0.1
294.465	0.14
294.678	0.15
294.891	0.14
295.104	0.09
295.317	0.1
295.53	0.13
295.743	0.1
295.956	0.08
296.169	0.14
296.382	0.16
296.595	0.1
296.808	0.05
297.021	0.17
297.234	0.15
297.447	0.11
297.66	0.14
297.873	0.19
298.086	0.14
298.299	0.08
298.511	0.08
298.724	0.15
298.937	0.09
299.15	0.07
299.363	0.13
299.575	0.12
299.788	0.17
300.001	0.09
300.213	0.08
300.426	0.12
300.639	0.15
300.852	0.09
301.064	0.13
301.277	0.21
301.489	0.14
301.702	0.12
301.915	0.11
302.127	0.09
302.34	0.11
302.552	0.12
302.765	0.08
302.977	0.16
303.19	0.08
303.402	0.05
303.615	0.07
303.827	0.11
304.04	0.17
304.252	0.12
304.464	0.08
304.677	0.25
304.889	0.14
305.102	0.06
305.314	0.1
305.526	0.18
305.739	0.16
305.951	0.04
306.163	0.06
306.375	0.2
306.588	0.09
306.8	0.05
307.012	0.07
307.224	0.13
307.436	0.19
307.649	0.03
307.861	0.1
308.073	0.12
308.285	0.11
308.497	0.07
308.709	0.07
308.921	0.12
309.133	0.18
309.346	0.07
309.558	0.06
309.77	0.14
309.982	0.15
310.194	0.17
310.406	0.07
310.617	0.18
310.829	0.12
311.041	0.13
311.253	0.08
311.465	0.1
311.677	0.06
311.889	0.1
312.101	0.07
312.313	0.17
312.524	0.16
312.736	0.06
312.948	0.06
313.16	0.19
313.372	0.15
313.583	0.12
313.795	0.11
314.007	0.09
314.218	0.18
314.43	0.07
314.642	0.07
314.853	0.02
315.065	0.1
315.277	0.1
315.488	0.12
315.7	0.17
315.912	0.1
316.123	0.04
316.335	0.11
316.546	0.21
316.758	0.11
316.969	0.11
317.181	0.14
317.392	0.11
317.604	0.15
317.815	0.06
318.026	0.05
318.238	0.07
318.449	0.17
318.661	0.06
318.872	0.05
319.083	0.07
319.295	0.12
319.506	0.09
319.717	0.12
319.929	0.14
320.14	0.14
320.351	0.12
320.562	0.1
320.774	0.1
320.985	0.11
321.196	0.05
321.407	0.07
321.618	0.14
321.829	0.11
322.041	0.14
322.252	0.13
322.463	0.1
322.674	0.12
322.885	0.08
323.096	0.07
323.307	0.1
323.518	0.12
323.729	0.12
323.94	0.03
324.151	0.06
324.362	0.11
324.573	0.15
324.784	0.08
324.995	0.14
325.206	0.11
325.417	0.09
325.628	0.1
325.838	0.1
326.049	0.13
326.26	0.15
326.471	0.13
326.682	0.13
326.892	0.09
327.103	-0.01
327.314	0.05
327.525	0.16
327.735	0.11
327.946	0.11
328.157	0.04
328.368	0.14
328.578	0.06
328.789	0.15
328.999	0.07
329.21	0.05
329.421	0.15
329.631	0.03
329.842	0.1
330.052	0.15
330.263	0.15
330.473	0.12
330.684	0.08
330.894	0.08
331.105	0.11
331.315	0.07
331.526	0.05
331.736	0.26
331.947	0.13
332.157	0.13
332.367	0.05
332.578	0.13
332.788	0.17
332.999	0.1
333.209	0.1
333.419	0.05
333.629	0.13
333.84	0.17
334.05	0.09
334.26	0.16
334.47	0.13
334.681	0.17
334.891	0.1
335.101	0.11
335.311	0.19
335.521	0.11
335.732	0.05
335.942	0.17
336.152	0.15
336.362	0.1
336.572	0.12
336.782	0.12
336.992	0.06
337.202	0.1
337.412	0.06
337.622	0.11
337.832	0.15
338.042	0.09
338.252	0.08
338.462	0.03
338.672	0.16
338.882	0.02
339.092	0.11
339.302	0.18
339.511	0.1
339.721	0.05
339.931	0.07
340.141	0.14
340.351	0.15
340.561	0.11
340.77	0.1
340.98	0.11
341.19	0.11
341.4	0.13
341.609	0.03
341.819	0.09
342.029	0.02
342.238	0.07
342.448	0.06
342.658	0.15
342.867	0.12
343.077	0.12
343.286	0.05
343.496	0.15
343.706	0.19
343.915	0.04
344.125	0.1
344.334	0.1
344.544	0.06
344.753	0.07
344.963	0.11
345.172	0.09
345.381	0.08
345.591	0.1
345.8	0.09
346.01	0.15
346.219	0.14
346.428	0.02
346.638	0.12
346.847	0.13
347.056	0.12
347.266	0.07
347.475	0.09
347.684	0.14
347.893	0.12
348.103	0.13
348.312	0.07
348.521	0.13
348.73	0.13
348.94	0.11
349.149	0.09
349.358	0.07
349.567	0.09
349.776	0.05
349.985	0.07
350.194	0.11
350.403	0.16
350.612	0.05
350.821	0.09
351.03	0.08
351.239	0.02
351.448	0.1
351.657	0.05
351.866	0.2
352.075	0.05
352.284	0.15
352.493	0.06
352.702	0.15
352.911	0.14
353.12	0.1
353.329	0.06
353.538	0.11
353.746	0.1
353.955	0.08
354.164	0.14
354.373	0.11
354.582	0.16
354.79	0.12
354.999	0.16
355.208	0.11
355.416	0.16
355.625	0.05
355.834	0.05
356.042	0.18
356.251	0.11
356.46	0.09
356.668	0.11
356.877	0.19
357.085	0.14
357.294	0
357.503	0.11
357.711	0.09
357.92	0.21
358.128	0.18
358.337	0.11
358.545	0.14
358.754	0.05
358.962	0.14
359.17	0.08
359.379	0.13
359.587	0.16
359.796	0.06
360.004	0.15
360.212	0.15
360.421	0.17
360.629	0.08
360.837	0.09
361.046	0.15
361.254	0.2
361.462	0.1
361.67	0.1
361.879	0.14
362.087	0.14
362.295	0.13
362.503	0.08
362.711	0.07
362.92	0.1
363.128	0.06
363.336	0.07
363.544	0.04
363.752	0.11
363.96	0.06
364.168	0.05
364.376	0.09
364.584	0.13
364.792	0.13
365	0.12
365.208	0.12
365.416	0.15
365.624	0.16
365.832	0.07
366.04	0.15
366.248	0.1
366.456	0.09
366.664	0.14
366.872	0.1
367.079	0.11
367.287	0.1
367.495	0.1
367.703	0.1
367.911	0.09
368.118	0.09
368.326	0.12
368.534	0.09
368.742	0.17
368.949	0.03
369.157	0.12
369.365	0.15
369.572	0.07
369.78	0.05
369.988	0.15
370.195	0.14
370.403	0.15
370.61	0.08
370.818	0.1
371.026	0.19
371.233	0.05
371.441	0.13
371.648	0.11
371.856	0.11
372.063	0.12
372.271	0.08
372.478	0.09
372.685	0.06
372.893	0.12
373.1	0.04
373.308	0.1
373.515	0.19
373.722	0.16
373.93	0.15
374.137	0.16
374.344	0.16
374.552	0.14
374.759	0.16
374.966	0.08
375.173	0.09
375.381	0.2
375.588	0.11
375.795	0.06
376.002	0.08
376.209	0.06
376.417	0.09
376.624	0.12
376.831	0.16
377.038	0.12
377.245	0.02
377.452	0.09
377.659	0.08
377.866	0.07
378.073	0.05
378.28	0.07
378.487	0.19
378.694	0.2
378.901	0.08
379.108	0.11
379.315	0.14
379.522	0.19
379.729	0.13
379.936	0.1
380.143	0.11
380.35	0.09
380.557	0.09
380.763	0.09
380.97	0.12
381.177	0.11
381.384	0.11
381.591	0.14
381.797	0.11
382.004	0.15
382.211	0.12
382.418	0.05
382.624	0.14
382.831	0.15
383.038	0.05
383.244	0.11
383.451	0.08
383.658	0.16
383.864	0.09
384.071	0.07
384.277	0.18
384.484	0.09
384.69	0.18
384.897	0.07
385.103	0.11
385.31	0.1
385.516	0.08
385.723	0.09
385.929	0.12
386.136	0.06
386.342	0.1
386.549	0.11
386.755	0.16
386.961	0.1
387.168	0.1
387.374	0.07
387.58	0.15
387.787	0.12
387.993	0.13
388.199	0.1
388.406	0.06
388.612	0.13
388.818	0.1
389.024	0.05
389.231	0.14
389.437	0.19
389.643	0.12
389.849	0.09
390.055	0.11
390.261	0.14
390.467	0.14
390.674	0.09
390.88	0.14
391.086	0.14
391.292	0.1
391.498	0.14
391.704	0.1
391.91	0.12
392.116	0.11
392.322	0.06
392.528	0.14
392.734	0.09
392.94	0.17
393.146	0.07
393.352	0.09
393.557	0.11
393.763	0.09
393.969	0.15
394.175	0.1
394.381	0.16
394.587	0.1
394.792	0.06
394.998	0.19
395.204	0.21
395.41	0.08
395.615	0.17
395.821	0.19
396.027	0.17
396.233	0.1
396.438	0.17
396.644	0.15
396.85	0.13
397.055	0.12
397.261	0.11
397.466	0.22
397.672	0.16
397.878	0.17
398.083	0.15
398.289	0.11
398.494	0.19
398.7	0.21
398.905	0.06
399.111	0.2
399.316	0.1
399.522	0.16
399.727	0.15
399.932	0.12
400.138	0.13
400.343	0.17
400.549	0.17
400.754	0.16
400.959	0.16
401.165	0.13
401.37	0.15
401.575	0.25
401.78	0.15
401.986	0.11
402.191	0.15
402.396	0.14
402.601	0.23
402.807	0.16
403.012	0.17
403.217	0.2
403.422	0.16
403.627	0.2
403.832	0.12
404.037	0.17
404.243	0.19
404.448	0.16
404.653	0.19
404.858	0.2
405.063	0.22
405.268	0.12
405.473	0.13
405.678	0.15
405.883	0.36
406.088	0.23
406.293	0.14
406.498	0.18
406.703	0.22
406.907	0.17
407.112	0.19
407.317	0.23
407.522	0.24
407.727	0.13
407.932	0.24
408.136	0.27
408.341	0.18
408.546	0.19
408.751	0.25
408.956	0.2
409.16	0.26
409.365	0.19
409.57	0.25
409.774	0.24
409.979	0.26
410.184	0.29
410.388	0.19
410.593	0.3
410.798	0.29
411.002	0.28
411.207	0.31
411.411	0.34
411.616	0.27
411.82	0.31
412.025	0.32
412.229	0.27
412.434	0.39
412.638	0.39
412.843	0.32
413.047	0.36
413.252	0.37
413.456	0.35
413.66	0.44
413.865	0.38
414.069	0.46
414.273	0.44
414.478	0.43
414.682	0.43
414.886	0.47
415.091	0.38
415.295	0.43
415.499	0.56
415.703	0.45
415.908	0.54
416.112	0.45
416.316	0.62
416.52	0.55
416.724	0.56
416.929	0.59
417.133	0.78
417.337	0.6
417.541	0.69
417.745	0.69
417.949	0.77
418.153	0.75
418.357	0.69
418.561	0.89
418.765	0.82
418.969	0.95
419.173	1
419.377	0.87
419.581	1.01
419.785	0.98
419.989	0.96
420.193	1.04
420.397	1.08
420.601	1.2
420.804	1.23
421.008	1.15
421.212	1.27
421.416	1.29
421.62	1.23
421.823	1.25
422.027	1.41
422.231	1.39
422.435	1.34
422.638	1.41
422.842	1.41
423.046	1.43
423.249	1.55
423.453	1.57
423.657	1.66
423.86	1.62
424.064	1.69
424.268	1.78
424.471	1.71
424.675	1.87
424.878	1.97
425.082	1.96
425.285	2
425.489	2.06
425.692	2.06
425.896	1.97
426.099	2.1
426.303	2.16
426.506	2.18
426.71	2.33
426.913	2.42
427.116	2.56
427.32	2.51
427.523	2.43
427.726	2.73
427.93	2.68
428.133	2.78
428.336	2.78
428.54	2.87
428.743	3.03
428.946	3.16
429.149	3.04
429.353	3.1
429.556	3.15
429.759	3.16
429.962	3.19
430.165	3.28
430.368	3.1
430.571	3.16
430.775	3.22
430.978	3.13
431.181	3.21
431.384	3.22
431.587	3.16
431.79	3.49
431.993	3.44
432.196	3.46
432.399	3.68
432.602	3.75
432.805	3.75
433.008	3.97
433.211	3.74
433.414	4.04
433.616	4.12
433.819	3.97
434.022	4.13
434.225	4.25
434.428	4.27
434.631	4.5
434.833	4.23
435.036	4.32
435.239	4.53
435.442	4.55
435.645	4.56
435.847	4.57
436.05	4.78
436.253	4.85
436.455	4.82
436.658	4.78
436.861	5.03
437.063	5.02
437.266	4.92
437.468	5.18
437.671	5.41
437.874	5.31
438.076	5.23
438.279	5.42
438.481	5.47
438.684	5.75
438.886	5.7
439.089	5.86
439.291	5.75
439.494	5.98
439.696	6.09
439.899	6.24
440.101	6.45
440.303	6.45
440.506	6.98
440.708	6.78
440.91	6.95
441.113	6.89
441.315	7.18
441.517	7.09
441.72	7.34
441.922	7.21
442.124	7.02
442.326	7.36
442.529	7.54
442.731	7.46
442.933	7.75
443.135	7.59
443.337	7.59
443.539	7.88
443.742	7.73
443.944	7.98
444.146	7.85
444.348	7.89
444.55	7.88
444.752	7.93
444.954	8
445.156	8.09
445.358	8.22
445.56	8.41
445.762	8.29
445.964	8.5
446.166	8.43
446.368	8.37
446.57	8.39
446.772	8.24
446.974	8.1
447.175	8.27
447.377	8.18
447.579	8.34
447.781	8.19
447.983	8.29
448.184	8.03
448.386	8.14
448.588	8
448.79	8.01
448.991	8.12
449.193	8.15
449.395	7.87
449.597	7.7
449.798	7.66
450	7.42
450.202	7.44
450.403	7.43
450.605	7.3
450.806	7.2
451.008	7.06
451.21	6.96
451.411	6.82
451.613	6.37
451.814	6.59
452.016	6.63
452.217	6.22
452.419	6.26
452.62	6.05
452.821	5.96
453.023	5.92
453.224	5.78
453.426	5.55
453.627	5.13
453.828	5.27
454.03	5.22
454.231	5.2
454.432	5.09
454.634	4.99
454.835	4.88
455.036	4.75
455.238	4.61
455.439	4.56
455.64	4.38
455.841	4.23
456.042	4.45
456.244	4.16
456.445	4.04
456.646	3.89
456.847	3.82
457.048	3.79
457.249	3.81
457.45	3.88
457.651	3.41
457.852	3.36
458.054	3.26
458.255	3.18
458.456	3.26
458.657	3.24
458.858	2.9
459.058	2.98
459.259	2.98
459.46	2.86
459.661	2.78
459.862	2.87
460.063	2.78
460.264	2.79
460.465	2.54
460.666	2.78
460.866	2.54
461.067	2.46
461.268	2.45
461.469	2.46
461.67	2.37
461.87	2.29
462.071	2.3
462.272	2.21
462.473	2.18
462.673	2.34
462.874	2.24
463.075	2.32
463.275	2.2
463.476	2.35
463.676	2.27
463.877	2.19
464.078	2.19
464.278	2.21
464.479	2.1
464.679	2.08
464.88	2.05
465.08	2.05
465.281	1.97
465.481	1.88
465.682	1.82
465.882	1.88
466.083	1.85
466.283	1.84
466.483	1.7
466.684	1.61
466.884	1.6
467.085	1.63
467.285	1.69
467.485	1.5
467.686	1.54
467.886	1.52
468.086	1.52
468.286	1.5
468.487	1.52
468.687	1.45
468.887	1.39
469.087	1.44
469.287	1.43
469.488	1.27
469.688	1.4
469.888	1.4
470.088	1.43
470.288	1.34
470.488	1.32
470.688	1.21
470.888	1.21
471.088	1.09
471.288	1.23
471.488	1.19
471.688	1.26
471.888	1.11
472.088	1.23
472.288	1.17
472.488	1.11
472.688	1.06
472.888	1.13
473.088	1.09
473.288	1.07
473.488	1.04
473.688	1.15
473.887	1.06
474.087	1.03
474.287	1.04
474.487	0.99
474.687	1.07
474.886	0.97
475.086	0.98
475.286	0.99
475.486	0.98
475.685	0.95
475.885	0.95
476.085	0.97
476.284	0.99
476.484	0.93
476.684	0.99
476.883	1.01
477.083	0.92
477.282	0.91
477.482	0.98
477.681	0.99
477.881	0.91
478.08	0.86
478.28	0.83
478.479	0.92
478.679	0.95
478.878	0.84
479.078	0.85
479.277	0.88
479.477	0.86
479.676	0.88
479.875	0.88
480.075	0.78
480.274	0.87
480.473	0.9
480.673	0.85
480.872	0.91
481.071	0.9
481.271	0.87
481.47	0.8
481.669	0.86
481.868	0.83
482.067	0.85
482.267	0.81
482.466	0.81
482.665	0.78
482.864	0.81
483.063	0.8
483.262	0.86
483.461	0.89
483.661	0.89
483.86	0.83
484.059	0.88
484.258	0.87
484.457	0.83
484.656	0.86
484.855	0.88
485.054	0.79
485.253	0.87
485.452	0.82
485.651	0.86
485.849	0.85
486.048	0.82
486.247	0.81
486.446	0.87
486.645	0.82
486.844	0.87
487.043	0.84
487.241	0.89
487.44	0.85
487.639	0.89
487.838	0.92
488.037	0.94
488.235	0.97
488.434	0.88
488.633	0.88
488.831	0.96
489.03	0.98
489.229	0.94
489.427	0.94
489.626	0.99
489.825	1.01
490.023	0.97
490.222	0.95
490.42	1.02
490.619	1
490.817	1.03
491.016	0.99
491.214	1.04
491.413	1.05
491.611	1.03
491.81	1.01
492.008	1.05
492.207	1.08
492.405	1.09
492.604	1.05
492.802	1.09
493	1.13
493.199	1.16
493.397	1.14
493.595	1.17
493.794	1.13
493.992	1.23
494.19	1.16
494.388	1.26
494.587	1.18
494.785	1.2
494.983	1.16
495.181	1.26
495.379	1.29
495.578	1.28
495.776	1.3
495.974	1.28
496.172	1.3
496.37	1.36
496.568	1.33
496.766	1.35
496.964	1.43
497.162	1.43
497.36	1.36
497.558	1.45
497.756	1.47
497.954	1.44
498.152	1.48
498.35	1.51
498.548	1.49
498.746	1.51
498.944	1.49
499.142	1.54
499.34	1.53
499.538	1.63
499.736	1.52
499.933	1.64
500.131	1.62
500.329	1.68
500.527	1.7
500.725	1.75
500.922	1.74
501.12	1.74
501.318	1.77
501.516	1.75
501.713	1.81
501.911	1.77
502.109	1.74
502.306	1.89
502.504	1.79
502.701	1.82
502.899	1.88
503.097	1.99
503.294	1.88
503.492	1.94
503.689	1.98
503.887	1.97
504.084	2.04
504.282	1.98
504.479	1.95
504.677	2.09
504.874	2.05
505.072	2.01
505.269	2.11
505.466	2.15
505.664	2.13
505.861	2.08
506.059	2.14
506.256	2.19
506.453	2.22
506.651	2.27
506.848	2.27
507.045	2.28
507.242	2.25
507.44	2.29
507.637	2.26
507.834	2.29
508.031	2.36
508.229	2.32
508.426	2.3
508.623	2.38
508.82	2.42
509.017	2.34
509.214	2.39
509.411	2.47
509.608	2.4
509.805	2.5
510.003	2.48
510.2	2.52
510.397	2.6
510.594	2.53
510.791	2.55
510.988	2.52
511.184	2.58
511.381	2.51
511.578	2.6
511.775	2.68
511.972	2.59
512.169	2.63
512.366	2.61
512.563	2.73
512.76	2.72
512.956	2.77
513.153	2.67
513.35	2.71
513.547	2.69
513.744	2.72
513.94	2.75
514.137	2.82
514.334	2.81
514.53	2.78
514.727	2.91
514.924	2.93
515.12	2.86
515.317	2.84
515.514	2.85
515.71	2.83
515.907	2.93
516.103	2.92
516.3	2.84
516.497	3
516.693	2.96
516.89	2.97
517.086	2.95
517.283	3.01
517.479	2.93
517.676	3.02
517.872	3.04
518.068	3.06
518.265	2.99
518.461	3
518.658	3.05
518.854	3.06
519.05	3.13
519.247	3.1
519.443	3.11
519.639	3.14
519.836	3.11
520.032	3.1
520.228	3.17
520.424	3.17
520.621	3.18
520.817	3.15
521.013	3.1
521.209	3.24
521.405	3.21
521.601	3.22
521.798	3.2
521.994	3.25
522.19	3.21
522.386	3.19
522.582	3.25
522.778	3.35
522.974	3.24
523.17	3.26
523.366	3.23
523.562	3.3
523.758	3.26
523.954	3.21
524.15	3.29
524.346	3.35
524.542	3.29
524.738	3.27
524.934	3.39
525.129	3.34
525.325	3.29
525.521	3.29
525.717	3.47
525.913	3.34
526.109	3.33
526.304	3.41
526.5	3.39
526.696	3.43
526.892	3.39
527.087	3.46
527.283	3.46
527.479	3.46
527.674	3.3
527.87	3.44
528.066	3.39
528.261	3.45
528.457	3.4
528.653	3.48
528.848	3.44
529.044	3.51
529.239	3.42
529.435	3.49
529.63	3.4
529.826	3.48
530.021	3.47
530.217	3.51
530.412	3.45
530.608	3.5
530.803	3.48
530.999	3.46
531.194	3.45
531.389	3.54
531.585	3.48
531.78	3.53
531.975	3.53
532.171	3.49
532.366	3.54
532.561	3.53
532.757	3.48
532.952	3.62
533.147	3.54
533.342	3.51
533.538	3.49
533.733	3.62
533.928	3.48
534.123	3.6
534.318	3.53
534.513	3.52
534.709	3.58
534.904	3.57
535.099	3.62
535.294	3.63
535.489	3.61
535.684	3.59
535.879	3.58
536.074	3.65
536.269	3.58
536.464	3.63
536.659	3.56
536.854	3.59
537.049	3.63
537.244	3.58
537.439	3.61
537.634	3.63
537.828	3.66
538.023	3.6
538.218	3.61
538.413	3.57
538.608	3.6
538.803	3.59
538.997	3.62
539.192	3.65
539.387	3.66
539.582	3.59
539.776	3.56
539.971	3.62
540.166	3.63
540.36	3.6
540.555	3.71
540.75	3.66
540.944	3.62
541.139	3.63
541.334	3.65
541.528	3.64
541.723	3.66
541.917	3.63
542.112	3.53
542.306	3.6
542.501	3.58
542.695	3.65
542.89	3.61
543.084	3.62
543.279	3.65
543.473	3.68
543.668	3.66
543.862	3.59
544.056	3.62
544.251	3.64
544.445	3.69
544.64	3.69
544.834	3.53
545.028	3.49
545.222	3.69
545.417	3.76
545.611	3.65
545.805	3.68
546	3.57
546.194	3.65
546.388	3.66
546.582	3.63
546.776	3.66
546.97	3.68
547.165	3.65
547.359	3.65
547.553	3.61
547.747	3.66
547.941	3.73
548.135	3.65
548.329	3.69
548.523	3.67
548.717	3.61
548.911	3.62
549.105	3.63
549.299	3.69
549.493	3.7
549.687	3.63
549.881	3.71
550.075	3.63
550.269	3.65
550.463	3.67
550.657	3.73
550.85	3.65
551.044	3.62
551.238	3.65
551.432	3.68
551.626	3.68
551.82	3.67
552.013	3.65
552.207	3.73
552.401	3.71
552.594	3.67
552.788	3.61
552.982	3.69
553.176	3.62
553.369	3.75
553.563	3.72
553.756	3.67
553.95	3.66
554.144	3.7
554.337	3.72
554.531	3.58
554.724	3.71
554.918	3.68
555.111	3.66
555.305	3.69
555.498	3.71
555.692	3.73
555.885	3.68
556.079	3.65
556.272	3.67
556.466	3.72
556.659	3.66
556.852	3.69
557.046	3.63
557.239	3.61
557.432	3.68
557.626	3.69
557.819	3.76
558.012	3.72
558.206	3.73
558.399	3.72
558.592	3.68
558.785	3.62
558.979	3.72
559.172	3.64
559.365	3.74
559.558	3.65
559.751	3.65
559.944	3.69
560.138	3.66
560.331	3.68
560.524	3.71
560.717	3.68
560.91	3.69
561.103	3.65
561.296	3.63
561.489	3.73
561.682	3.71
561.875	3.72
562.068	3.74
562.261	3.61
562.454	3.76
562.647	3.71
562.84	3.68
563.032	3.65
563.225	3.64
563.418	3.65
563.611	3.66
563.804	3.66
563.997	3.61
564.19	3.54
564.382	3.7
564.575	3.68
564.768	3.61
564.961	3.71
565.153	3.67
565.346	3.64
565.539	3.72
565.731	3.67
565.924	3.72
566.117	3.76
566.309	3.66
566.502	3.62
566.695	3.63
566.887	3.71
567.08	3.63
567.272	3.7
567.465	3.58
567.657	3.72
567.85	3.63
568.042	3.7
568.235	3.72
568.427	3.64
568.62	3.64
568.812	3.64
569.005	3.69
569.197	3.6
569.389	3.69
569.582	3.67
569.774	3.69
569.966	3.57
570.159	3.6
570.351	3.6
570.543	3.63
570.736	3.63
570.928	3.56
571.12	3.68
571.312	3.59
571.505	3.51
571.697	3.7
571.889	3.66
572.081	3.64
572.273	3.59
572.465	3.67
572.658	3.66
572.85	3.65
573.042	3.63
573.234	3.62
573.426	3.61
573.618	3.6
573.81	3.63
574.002	3.62
574.194	3.66
574.386	3.6
574.578	3.48
574.77	3.55
574.962	3.6
575.154	3.55
575.346	3.56
575.538	3.58
575.729	3.57
575.921	3.63
576.113	3.59
576.305	3.62
576.497	3.64
576.689	3.54
576.88	3.55
577.072	3.63
577.264	3.58
577.456	3.61
577.647	3.54
577.839	3.67
578.031	3.57
578.223	3.51
578.414	3.48
578.606	3.61
578.798	3.6
578.989	3.56
579.181	3.59
579.372	3.6
579.564	3.59
579.755	3.52
579.947	3.49
580.139	3.58
580.33	3.45
580.522	3.51
580.713	3.48
580.905	3.47
581.096	3.52
581.287	3.5
581.479	3.52
581.67	3.61
581.862	3.5
582.053	3.51
582.244	3.48
582.436	3.55
582.627	3.45
582.818	3.48
583.01	3.48
583.201	3.58
583.392	3.48
583.583	3.45
583.775	3.4
583.966	3.45
584.157	3.47
584.348	3.51
584.54	3.47
584.731	3.48
584.922	3.45
585.113	3.38
585.304	3.46
585.495	3.48
585.686	3.51
585.877	3.5
586.068	3.44
586.259	3.47
586.45	3.45
586.641	3.4
586.832	3.45
587.023	3.39
587.214	3.37
587.405	3.45
587.596	3.35
587.787	3.4
587.978	3.41
588.169	3.36
588.36	3.32
588.551	3.36
588.742	3.38
588.932	3.47
589.123	3.33
589.314	3.44
589.505	3.38
589.696	3.41
589.886	3.33
590.077	3.25
590.268	3.33
590.458	3.28
590.649	3.21
590.84	3.36
591.03	3.29
591.221	3.25
591.412	3.25
591.602	3.36
591.793	3.32
591.984	3.3
592.174	3.33
592.365	3.42
592.555	3.23
592.746	3.28
592.936	3.23
593.127	3.28
593.317	3.28
593.508	3.26
593.698	3.26
593.889	3.24
594.079	3.19
594.269	3.17
594.46	3.24
594.65	3.23
594.84	3.19
595.031	3.11
595.221	3.19
595.411	3.2
595.602	3.23
595.792	3.23
595.982	3.12
596.172	3.26
596.363	3.14
596.553	3.16
596.743	3.15
596.933	3.15
597.123	3.13
597.314	3.07
597.504	3.07
597.694	3.17
597.884	3.11
598.074	3.14
598.264	3.07
598.454	3.13
598.644	3.06
598.834	3.1
599.024	3
599.214	3.01
599.404	3.11
599.594	3.08
599.784	2.99
599.974	3.07
600.164	3.09
600.354	2.98
600.544	2.96
600.734	3.03
600.924	2.98
601.114	2.98
601.303	2.96
601.493	3.06
601.683	3
601.873	2.96
602.063	2.91
602.252	2.99
602.442	2.9
602.632	2.9
602.821	2.91
603.011	2.95
603.201	2.89
603.39	2.93
603.58	2.88
603.77	2.91
603.959	2.94
604.149	2.87
604.339	2.9
604.528	2.96
604.718	2.94
604.907	2.87
605.097	2.87
605.286	2.85
605.476	2.85
605.665	2.91
605.855	2.84
606.044	2.93
606.234	2.84
606.423	2.76
606.612	2.79
606.802	2.78
606.991	2.83
607.181	2.85
607.37	2.8
607.559	2.67
607.749	2.73
607.938	2.77
608.127	2.74
608.316	2.75
608.506	2.73
608.695	2.72
608.884	2.74
609.073	2.7
609.263	2.78
609.452	2.78
609.641	2.61
609.83	2.62
610.019	2.71
610.208	2.69
610.397	2.7
610.586	2.72
610.775	2.63
610.965	2.6
611.154	2.58
611.343	2.65
611.532	2.59
611.721	2.66
611.91	2.59
612.099	2.59
612.287	2.6
612.476	2.5
612.665	2.61
612.854	2.54
613.043	2.55
613.232	2.53
613.421	2.49
613.61	2.55
613.798	2.54
613.987	2.56
614.176	2.54
614.365	2.56
614.554	2.47
614.742	2.5
614.931	2.41
615.12	2.54
615.309	2.47
615.497	2.48
615.686	2.4
615.875	2.4
616.063	2.44
616.252	2.42
616.44	2.4
616.629	2.38
616.818	2.41
617.006	2.41
617.195	2.38
617.383	2.4
617.572	2.35
617.76	2.34
617.949	2.36
618.137	2.41
618.326	2.44
618.514	2.28
618.703	2.25
618.891	2.43
619.079	2.27
619.268	2.32
619.456	2.24
619.644	2.34
619.833	2.28
620.021	2.27
620.209	2.21
620.398	2.29
620.586	2.28
620.774	2.27
620.962	2.22
621.151	2.29
621.339	2.23
621.527	2.15
621.715	2.18
621.903	2.19
622.092	2.11
622.28	2.23
622.468	2.12
622.656	2.15
622.844	2.17
623.032	2.15
623.22	2.04
623.408	2.18
623.596	2.11
623.784	2.15
623.972	2.05
624.16	2.12
624.348	2.17
624.536	2.12
624.724	2.05
624.912	2.08
625.1	2.12
625.288	2.07
625.476	2.01
625.664	2.08
625.851	1.98
626.039	2.03
626.227	2.08
626.415	2.05
626.603	1.91
626.79	2.08
626.978	2
627.166	2.03
627.354	1.96
627.541	1.97
627.729	1.87
627.917	2.06
628.104	2
628.292	1.97
628.48	1.95
628.667	1.94
628.855	2
629.042	1.99
629.23	1.91
629.418	1.93
629.605	1.94
629.793	1.85
629.98	1.89
630.168	1.85
630.355	1.89
630.543	1.9
630.73	1.85
630.917	1.89
631.105	1.9
631.292	1.83
631.48	1.84
631.667	1.91
631.854	1.83
632.042	1.81
632.229	1.77
632.416	1.85
632.604	1.79
632.791	1.71
632.978	1.8
633.165	1.81
633.353	1.85
633.54	1.88
633.727	1.68
633.914	1.73
634.101	1.67
634.289	1.8
634.476	1.7
634.663	1.64
634.85	1.69
635.037	1.65
635.224	1.62
635.411	1.76
635.598	1.73
635.785	1.7
635.972	1.65
636.159	1.67
636.346	1.63
636.533	1.68
636.72	1.61
636.907	1.63
637.094	1.65
637.281	1.55
637.468	1.62
637.655	1.59
637.842	1.61
638.029	1.59
638.215	1.61
638.402	1.59
638.589	1.5
638.776	1.53
638.963	1.55
639.149	1.56
639.336	1.64
639.523	1.5
639.709	1.52
639.896	1.51
640.083	1.51
640.27	1.52
640.456	1.47
640.643	1.5
640.829	1.42
641.016	1.44
641.203	1.4
641.389	1.48
641.576	1.46
641.762	1.47
641.949	1.41
642.135	1.46
642.322	1.43
642.508	1.38
642.695	1.4
642.881	1.4
643.068	1.39
643.254	1.42
643.441	1.46
643.627	1.41
643.813	1.34
644	1.41
644.186	1.33
644.372	1.37
644.559	1.42
644.745	1.33
644.931	1.31
645.118	1.35
645.304	1.31
645.49	1.33
645.676	1.32
645.862	1.32
646.049	1.32
646.235	1.32
646.421	1.39
646.607	1.35
646.793	1.28
646.979	1.22
647.165	1.34
647.352	1.28
647.538	1.3
647.724	1.29
647.91	1.24
648.096	1.25
648.282	1.26
648.468	1.22
648.654	1.27
648.84	1.28
649.026	1.25
649.212	1.21
649.397	1.15
649.583	1.2
649.769	1.21
649.955	1.24
650.141	1.22
650.327	1.22
650.513	1.15
650.698	1.2
650.884	1.1
651.07	1.19
651.256	1.19
651.442	1.12
651.627	1.08
651.813	1.23
651.999	1.09
652.184	1.15
652.37	1.1
652.556	1.08
652.741	1.17
652.927	1.01
653.113	1.13
653.298	1.11
653.484	1.07
653.669	1.07
653.855	1.07
654.04	1.11
654.226	1.04
654.412	1.06
654.597	0.99
654.782	1.06
654.968	1.06
655.153	1.06
655.339	1.06
655.524	1
655.71	1.05
655.895	1
656.08	1.02
656.266	1.06
656.451	1.01
656.636	1.01
656.822	1.04
657.007	1.01
657.192	1.01
657.378	0.97
657.563	1.02
657.748	0.99
657.933	1.01
658.118	0.91
658.304	0.95
658.489	0.99
658.674	0.99
658.859	0.94
659.044	0.96
659.229	0.98
659.414	0.91
659.599	0.95
659.785	0.88
659.97	0.9
660.155	0.93
660.34	0.96
660.525	0.92
660.71	0.92
660.895	0.92
661.08	0.88
661.264	0.88
661.449	0.93
661.634	0.89
661.819	0.94
662.004	0.92
662.189	0.86
662.374	0.86
662.559	0.83
662.743	0.77
662.928	0.84
663.113	0.81
663.298	0.8
663.483	0.83
663.667	0.84
663.852	0.84
664.037	0.87
664.221	0.8
664.406	0.85
664.591	0.86
664.775	0.86
664.96	0.81
665.145	0.83
665.329	0.85
665.514	0.77
665.698	0.78
665.883	0.7
666.068	0.83
666.252	0.81
666.437	0.77
666.621	0.78
666.806	0.82
666.99	0.76
667.174	0.72
667.359	0.82
667.543	0.72
667.728	0.71
667.912	0.68
668.096	0.8
668.281	0.72
668.465	0.77
668.649	0.71
668.834	0.73
669.018	0.75
669.202	0.69
669.387	0.71
669.571	0.73
669.755	0.75
669.939	0.71
670.124	0.73
670.308	0.75
670.492	0.72
670.676	0.73
670.86	0.71
671.044	0.66
671.228	0.74
671.413	0.68
671.597	0.64
671.781	0.65
671.965	0.71
672.149	0.68
672.333	0.66
672.517	0.67
672.701	0.69
672.885	0.64
673.069	0.61
673.253	0.75
673.437	0.67
673.621	0.59
673.804	0.67
673.988	0.66
674.172	0.65
674.356	0.57
674.54	0.58
674.724	0.68
674.908	0.63
675.091	0.69
675.275	0.64
675.459	0.71
675.643	0.58
675.826	0.68
676.01	0.6
676.194	0.6
676.377	0.64
676.561	0.62
676.745	0.64
676.928	0.6
677.112	0.66
677.296	0.55
677.479	0.6
677.663	0.54
677.846	0.62
678.03	0.6
678.213	0.57
678.397	0.58
678.58	0.53
678.764	0.57
678.947	0.53
679.131	0.58
679.314	0.62
679.498	0.59
679.681	0.58
679.865	0.61
680.048	0.52
680.231	0.57
680.415	0.58
680.598	0.49
680.781	0.55
680.965	0.55
681.148	0.53
681.331	0.47
681.514	0.6
681.698	0.53
681.881	0.6
682.064	0.58
682.247	0.56
682.43	0.42
682.614	0.54
682.797	0.59
682.98	0.55
683.163	0.46
683.346	0.54
683.529	0.51
683.712	0.5
683.895	0.5
684.078	0.42
684.261	0.46
684.444	0.56
684.627	0.57
684.81	0.43
684.993	0.51
685.176	0.54
685.359	0.46
685.542	0.46
685.725	0.57
685.908	0.54
686.091	0.45
686.274	0.53
686.457	0.53
686.639	0.53
686.822	0.54
687.005	0.44
687.188	0.51
687.371	0.54
687.553	0.49
687.736	0.5
687.919	0.58
688.102	0.53
688.284	0.44
688.467	0.43
688.65	0.47
688.832	0.41
689.015	0.46
689.197	0.34
689.38	0.54
689.563	0.52
689.745	0.42
689.928	0.34
690.11	0.41
690.293	0.5
690.475	0.37
690.658	0.45
690.84	0.43
691.023	0.47
691.205	0.4
691.388	0.41
691.57	0.48
691.752	0.45
691.935	0.32
692.117	0.38
692.3	0.45
692.482	0.45
692.664	0.41
692.847	0.39
693.029	0.47
693.211	0.46
693.393	0.37
693.576	0.37
693.758	0.38
693.94	0.37
694.122	0.31
694.304	0.35
694.487	0.38
694.669	0.45
694.851	0.32
695.033	0.37
695.215	0.34
695.397	0.37
695.579	0.4
695.761	0.38
695.943	0.28
696.125	0.46
696.308	0.38
696.49	0.27
696.671	0.5
696.853	0.35
697.035	0.53
697.217	0.37
697.399	0.4
697.581	0.31
697.763	0.3
697.945	0.34
698.127	0.38
698.309	0.39
698.491	0.38
698.672	0.4
698.854	0.45
699.036	0.41
699.218	0.38
699.399	0.4
699.581	0.38
699.763	0.37
699.945	0.3
700.126	0.36
700.308	0.36
700.49	0.32
700.671	0.27
700.853	0.26
701.035	0.27
701.216	0.36
701.398	0.2
701.579	0.29
701.761	0.37
701.943	0.26
702.124	0.28
702.306	0.32
702.487	0.48
702.669	0.38
702.85	0.24
703.031	0.26
703.213	0.44
703.394	0.44
703.576	0.27
703.757	0.41
703.938	0.37
704.12	0.46
704.301	0.4
704.483	0.25
704.664	0.33
704.845	0.43
705.026	0.37
705.208	0.34
705.389	0.31
705.57	0.33
705.751	0.29
705.933	0.33
706.114	0.37
706.295	0.29
706.476	0.28
706.657	0.42
706.838	0.34
707.02	0.38
707.201	0.23
707.382	0.27
707.563	0.33
707.744	0.31
707.925	0.28
708.106	0.24
708.287	0.31
708.468	0.36
708.649	0.33
708.83	0.37
709.011	0.24
709.192	0.34
709.373	0.22
709.554	0.28
709.734	0.39
709.915	0.32
710.096	0.31
710.277	0.2
710.458	0.3
710.639	0.33
710.819	0.14
711	0.25
711.181	0.37
711.362	0.3
711.542	0.25
711.723	0.25
711.904	0.3
712.085	0.32
712.265	0.36
712.446	0.24
712.627	0.25
712.807	0.24
712.988	0.27
713.168	0.2
713.349	0.32
713.53	0.13
713.71	0.16
713.891	0.13
714.071	0.28
714.252	0.21
714.432	0.2
714.613	0.18
714.793	0.32
714.974	0.35
715.154	0.35
715.334	0.34
715.515	0.31
715.695	0.18
715.876	0.22
716.056	0.3
716.236	0.26
716.417	0.23
716.597	0.21
716.777	0.46
716.957	0.25
717.138	0.26
717.318	0.23
717.498	0.14
717.678	0.21
717.859	0.28
718.039	0.19
718.219	0.24
718.399	0.23
718.579	0.24
718.759	0.19
718.939	0.36
719.12	0.32
719.3	0.25
719.48	0.04
719.66	0.05
719.84	0.32
720.02	0.2
720.2	0.13
720.38	0.25
720.56	0.3
720.74	0.11
720.92	0.19
721.1	0.3
721.279	0.33
721.459	0.3
721.639	0.09
721.819	0.23
721.999	0.22
722.179	0.27
722.359	0.18
722.538	0.23
722.718	0.25
722.898	0.21
723.078	0.18
723.257	0.21
723.437	0.25
723.617	0.2
723.797	0.22
723.976	0.23
724.156	0.25
724.336	0.33
724.515	0.38
724.695	0.02
724.874	0.26
725.054	0.25
725.234	0.11
725.413	0.16
725.593	0.24
725.772	0.22
725.952	0.15
726.131	0.2
726.311	0.22
726.49	0.16
726.67	0.16
726.849	0.18
727.028	0.19
727.208	0.17
727.387	0.18
727.567	0.15
727.746	0.28
727.925	0.25
728.105	0.17
728.284	0.13
728.463	0.13
728.643	0.26
728.822	-0.01
729.001	0.18
729.18	0.24
729.359	0.3
729.539	0.17
729.718	0.26
729.897	0.28
730.076	0.22
730.255	0.14
730.434	0.14
730.614	0.27
730.793	0.31
730.972	0.18
731.151	0.22
731.33	0.32
731.509	0.24
731.688	0.22
731.867	0.22
732.046	0.08
732.225	0.39
732.404	0.12
732.583	0.09
732.762	0.2
732.941	0.3
733.12	0.18
733.298	0.22
733.477	0.24
733.656	0.14
733.835	0.07
734.014	0.24
734.193	0.1
734.371	0.2
734.55	0.24
734.729	0.05
734.908	0.29
735.086	0.3
735.265	0.26
735.444	0.08
735.623	0.07
735.801	0.13
735.98	0.18
736.159	0.29
736.337	0.3
736.516	0.24
736.694	0.16
736.873	0.14
737.052	0.44
737.23	0.29
737.409	0.16
737.587	0.35
737.766	0.05
737.944	0.19
738.123	0.2
738.301	0.23
738.479	0.16
738.658	0.21
738.836	-0.01
739.015	0.23
739.193	0.36
739.371	0.03
739.55	0.29
739.728	0.16
739.906	0.31
740.085	0.36
740.263	0.23
740.441	-0.01
740.62	0.39
740.798	0.22
740.976	0.02
741.154	0.04
741.332	0.32
741.511	0.24
741.689	0.18
741.867	0.25
742.045	0.14
742.223	0.11
742.401	0.05
742.579	0.12
742.757	0.18
742.935	0.09
743.114	0.23
743.292	0.15
743.47	0.1
743.648	0.27
743.826	0.03
744.004	0.24
744.181	0.24
744.359	0.14
744.537	0.32
744.715	0.14
744.893	0.07
745.071	0.12
745.249	0.23
745.427	0.07
745.605	0.17
745.782	0.21
745.96	0.22
746.138	0.25
746.316	0.25
746.493	0.18
746.671	0.17
746.849	0.17
747.027	0.3
747.204	0.19
747.382	0.22
747.56	0.09
747.737	0.15
747.915	0.16
748.093	0.23
748.27	0.07
748.448	0.1
748.625	0.06
748.803	0.17
748.98	0.16
749.158	0.3
749.335	0.41
749.513	0.13
749.69	-0
749.868	0.2
750.045	0.2
750.223	0.11
750.4	0.01
750.578	0.28
750.755	0.23
750.932	0.09
751.11	0.31
751.287	0.02
751.464	0.28
751.642	0.07
751.819	0.13
751.996	0.12
752.173	0.1
752.351	0.08
752.528	0.24
752.705	0.14
752.882	0.17
753.06	0.18
753.237	0.19
753.414	0.36
753.591	0.4
753.768	0.26
753.945	0.16
754.122	0.1
754.299	0.23
754.476	0.02
754.654	0.14
754.831	0.26
755.008	0.09
755.185	0.08
755.362	0.04
755.539	0.2
755.716	0.06
755.892	0.05
756.069	0.18
756.246	0.18
756.423	0.1
756.6	0.31
756.777	0.19
756.954	0.31
757.131	0.17
757.307	0.11
757.484	-0.03
757.661	0.1
757.838	0.16
758.015	0.11
758.191	0.26
758.368	0.2
758.545	0.3
758.721	0.15
758.898	0.06
759.075	0.17
759.251	0.18
759.428	0.2
759.605	0.09
759.781	0.06
759.958	0.12
760.134	0.17
760.311	0.13
760.488	0.32
760.664	0.27
760.841	0.17
761.017	0.04
761.194	0.22
761.37	0.21
761.547	0.25
761.723	-0.03
761.899	0.26
762.076	0.08
762.252	0.02
762.429	-0.01
762.605	0.2
762.781	0.21
762.958	0.28
763.134	0.08
763.31	0.07
763.486	0.32
763.663	-0.08
763.839	0.14
764.015	-0.06
764.191	-0.01
764.368	0.04
764.544	0.01
764.72	0.19
764.896	0.25
765.072	0.23
765.248	0.13
765.425	0.24
765.601	0.11
765.777	0.08
765.953	-0.1
766.129	0.14
766.305	0.13
766.481	0.2
766.657	0.11
766.833	0.27
767.009	0.02
767.185	0.21
767.361	0.12
767.537	0.01
767.713	0.21
767.889	0.08
768.065	0.11
768.24	-0.02
768.416	0.27
768.592	0.09
768.768	0.21
768.944	0.26
769.12	-0.01
769.295	0.01
769.471	0.23
769.647	0.05
769.823	0.29
769.998	0.03
770.174	-0.02
770.35	0.37
770.525	0.26
770.701	0.13
770.877	0.12
771.052	-0.04
771.228	0.27
771.403	0.14
771.579	0.31
771.755	0.38
771.93	0.22
772.106	-0.07
772.281	-0.09
772.457	0.2
772.632	0.21
772.808	0.09
772.983	0.1
773.159	-0.01
773.334	0.42
773.509	0.06
773.685	0.01
773.86	0.53
774.036	0.29
774.211	0.19
774.386	0.15
774.562	0.11
774.737	0.2
774.912	0.03
775.087	0.14
775.263	0.17
775.438	0.15
775.613	0.17
775.788	0
775.964	0.29
776.139	0.69
776.314	-0.06
776.489	0.17
776.664	0.16
776.839	0.14
777.014	0.36
777.19	0.25
777.365	0.3
777.54	0.42
777.715	-0.08
777.89	0.15
778.065	0.14
778.24	0.22
778.415	0.22
778.59	-0.05
778.765	0.05
778.94	0.17
779.115	0
779.289	0.02
779.464	0.1
779.639	0.12
779.814	-0.1
779.989	0.01
780.164	0.37
780.339	0.25
780.513	0.09
780.688	0.1
780.863	0.07
781.038	0.37
781.212	0.12
781.387	0.17
781.562	0.38
781.737	0.02
781.911	0.3
782.086	0.18
782.261	0.26
782.435	0.5
782.61	0.17
782.784	0.18
782.959	0.33
783.134	-0.03
783.308	-0.08
783.483	0.25
783.657	0.53
783.832	0.47
784.006	-0.11
784.181	0.18
784.355	0.44
784.53	-0.18
784.704	-0.09
784.878	0.44
785.053	0.25
785.227	0.26
785.402	0.65
785.576	0.08
785.75	0.21
785.925	0.14
786.099	0.22
786.273	0.26
786.448	0.35
786.622	0.26
786.796	0.25
786.97	0.1
787.145	0.77
787.319	-0.15
787.493	0.09
787.667	0.02
787.841	0.18
788.015	0.42
788.19	0.05
788.364	0.15
788.538	0.23
788.712	0.33
788.886	0.08
789.06	0.41
789.234	0.46
789.408	-0.2
789.582	0.17
789.756	0
789.93	0.01
790.104	0.11
790.278	0.03
790.452	-0.11
790.626	0.27
790.8	-0.08
790.973	0.17
791.147	0.55
791.321	0.4
791.495	0.22
791.669	0.15
791.843	0.2
792.016	0.28
792.19	0.64
792.364	-0.08
792.538	0.64
792.711	0.34
792.885	0.06
793.059	-0.04
793.233	0.1
793.406	0.41
793.58	-0.04
793.754	0.32
793.927	0.17
794.101	0.31
794.274	0.1
794.448	0.19
794.622	0.13
794.795	0.31
794.969	-0.15
795.142	0.63
795.316	-0.01
795.489	0.01
795.663	0.75
795.836	0.45
796.009	-0.03
796.183	0.36
796.356	0.32
796.53	0.16
796.703	0.1
796.876	0.85
797.05	0.16
797.223	-0
797.396	0.3
797.57	0.16
797.743	0.69
797.916	0.21
798.09	0
798.263	0.35
798.436	0.36
798.609	-0.09
798.782	0.23
798.956	0.23
799.129	0.65
799.302	0.01
799.475	0.25
799.648	0.12
799.821	0.04
799.994	0.2
800.167	-0.34
800.34	0.14
800.514	0.37
800.687	-0.26
800.86	0.34
801.033	0.24
801.206	0.43
801.379	-0.01
801.551	0.65
801.724	0.48
801.897	0.68
802.07	0.16
802.243	-0.29
802.416	0.41
802.589	-0.01
802.762	0.42
802.935	0.13
803.107	0.33
803.28	0.78
803.453	0.38
803.626	0.12
803.798	0.25
803.971	0.04
804.144	0.36
804.317	0
804.489	0.52
804.662	0.13
804.835	0.02
805.007	-0.12
805.18	0.53
805.353	0.39
805.525	-0.06
805.698	-0.02
805.87	0.57
806.043	0.65
806.215	-0.19
806.388	-0.02
806.56	0.37
806.733	0.44
806.905	0.32
807.078	0.18
807.25	0.02
807.423	0.15
807.595	-0.05
807.768	0.74
807.94	0.62
808.112	0.44
808.285	0.16
808.457	0.21
808.629	0.22
808.802	0.32
808.974	0.15
809.146	0.46
809.318	-0.08
809.491	-0.01
809.663	0.68
809.835	-0.21
810.007	0.48
810.18	0.16
810.352	-0.33
810.524	0.07
810.696	0.41
810.868	0.76
811.04	-0.06
811.212	0.13
811.384	0.49
811.556	0.35
811.728	-0.01
811.901	0.66
812.073	-0.07
812.245	0.42
812.417	0.48
812.589	-0.27
812.76	0.16
812.932	0.39
813.104	0.68
813.276	0.32
813.448	0.75
813.62	0.62
813.792	0.41
813.964	0.04
814.136	0.16
814.307	-0.1
814.479	-0.25
814.651	0.3
814.823	1.22
814.995	0.4
815.166	0.47
815.338	-0.24
815.51	-0.32
815.681	0.87
815.853	0.36
816.025	0.07
816.196	1.08
816.368	0.71
816.54	-0.23
816.711	0.27
816.883	0.67
817.054	1.49
817.226	-0.32
817.398	0.21
817.569	0.53
817.741	0.4
817.912	0.07
818.084	0.43
818.255	0.95
818.426	-0.26
818.598	-0.34
818.769	-0.03
818.941	0.93
819.112	0.83
819.283	0.39
819.455	-0.14
819.626	0.04
819.798	0.82
819.969	0.18
820.14	0.53
820.311	0.17
820.483	0.3
820.654	0.52
820.825	0.25
820.996	0.21
821.168	-0.24
821.339	0.36
821.51	-0.12
821.681	0.12
821.852	0.18
822.023	-0.17
822.195	-0.36
822.366	0.73
822.537	0.04
822.708	0.27
822.879	-0.29
823.05	0.99
823.221	0.07
823.392	0.22
823.563	0.6
823.734	0.36
823.905	0.49
824.076	-0.43
824.247	-0.24
824.418	-0.14
824.589	1.18
824.759	0.29
824.93	0.27
825.101	-0.19
825.272	0.73
825.443	1.02
825.614	1.03
825.784	-0.54
825.955	1.5
826.126	0.87
826.297	0.69
826.467	1.16
826.638	0.71
826.809	-0.77
826.98	0.17
827.15	0.68
827.321	0.58
827.492	1.2
827.662	0.37
827.833	1.2
828.003	0.54
828.174	0.19
828.345	-0.61
828.515	1.18
828.686	0.63
828.856	0.1
829.027	0.02
829.197	-0.17
829.368	0.68
829.538	-0.12
829.709	0.14
829.879	0.73
830.049	0.38
830.22	-0.4
830.39	0.01
830.56	0.92
830.731	0.68
830.901	-0.05
831.072	0.05
831.242	0.78
831.412	0.34
831.582	-0.09
831.753	-0.7
831.923	0.83
832.093	0.45
832.263	0.29
832.434	-0.04
832.604	-0.52
832.774	0.82
832.944	0.21
833.114	-0.02
833.284	0.38
833.454	-0.36
833.624	-0.32
833.795	-0.13
833.965	0.74
834.135	1.25
834.305	-0.66
834.475	0.37
834.645	0.68
834.815	-0.34
834.985	0.2
835.155	0.05
835.325	0.31
835.494	0.99
835.664	0.53
835.834	0.03
836.004	0.86
836.174	0.8
836.344	0.34
836.514	-0.57
836.684	0.42
836.853	0.67
837.023	1.01
837.193	-0.45
837.363	1.02
837.532	1.85
837.702	0.2
837.872	-0.56
838.041	1.08
838.211	1.41
838.381	-0.15
838.55	0.29
838.72	2.37
838.89	1.41
839.059	0.19
839.229	-0.09
839.398	1.66
839.568	0.41
839.738	-0.08
839.907	1.49
840.077	0.09
840.246	-0.49
840.416	0.03
840.585	-1.2
840.755	1.92
840.924	1.84
841.093	-0.2
841.263	0.26
841.432	0.84
841.602	0.23
841.771	-0.06
841.94	0.17
842.11	2.05
842.279	1.87
842.448	-0.42
842.617	0.08
842.787	2.1
842.956	0.35
843.125	0.46
843.294	0.44
843.464	1.33
843.633	0.53
843.802	-0.63
843.971	-0.33
844.14	0.56
844.309	1.01
844.479	-0.91
844.648	-0.81
844.817	0.16
844.986	-0.05
845.155	0.53
845.324	1.39
845.493	0.49
845.662	-0.6
845.831	0.85
846	1.7
846.169	0.07
846.338	1.74
846.507	1.22
846.676	1.46
846.844	0.13
847.013	1.04
847.182	0.92
847.351	-0.03
847.52	-0.41
847.689	0.95
847.858	-0.13
848.026	0.06
848.195	0.74
848.364	0.04
848.533	0.11
848.701	-0.34
848.87	-0.03
849.039	1.19
849.207	0.55
849.376	1.76
849.545	1.3
849.713	0.37
849.882	-0.04
850.051	0.68
850.219	0.87
850.388	1.2
850.556	0
850.725	-0.22
850.893	0.66
851.062	-0.14
851.23	1.23
851.399	-0.86
851.567	0.89
851.736	0.7
851.904	-0.24
852.073	0.34
852.241	1.82
852.41	1.05
852.578	-0.36
852.746	0.12
852.915	1.32
853.083	1.27
853.251	-0.1
853.42	-0.15
853.588	0.28
853.756	1.43
853.924	0.75
854.093	0.07
854.261	-0.11
854.429	-0.84
854.597	0.71
854.765	-0.81
854.934	1.24
855.102	1.31
855.27	-0.22
855.438	0.87
855.606	0.85
855.774	1.99
855.942	-1.25
856.11	-0.8
856.278	0.27
856.446	0.67
856.614	0.58
856.782	0.09
856.95	1.82
857.118	0.58
857.286	1.47
857.454	-0.23
857.622	2.15
857.79	1
857.958	-1.04
858.126	-0.28
858.294	-1.54
858.462	0.86
858.629	0.16
858.797	-0.35
858.965	1.27
859.133	0.66
859.301	1.17
859.468	-0.18
859.636	-0.01
859.804	1.85
859.971	1.9
860.139	0.4
860.307	0.28
860.474	1.01
860.642	-1.12
860.81	0.55
860.977	0.56
861.145	3.06
861.313	-0.44
861.48	0.86
861.648	1.68
861.815	0.43
861.983	-0.7
862.15	0.96
862.318	0.65
862.485	2.27
862.653	0.55
862.82	-0.16
862.988	2.7
863.155	1.31
863.322	0.5
863.49	-1.38
863.657	-0.41
863.824	2.64
863.992	2.24
864.159	0.82
864.326	2.71
864.494	-0.14
864.661	4.02
864.828	-0.38
864.996	2.72
865.163	2.93
865.33	-0.51
865.497	-0.36
865.664	0.8
865.832	-1.52
865.999	0.89
866.166	-0.59
866.333	-0.1
866.5	-0.88
866.667	1.38
866.834	0.81
867.001	2.85
867.168	-1.35
867.335	0
867.502	0.19
867.669	1.28
867.836	2.68
868.003	-0.89
868.17	2.83
868.337	1.44
868.504	4.17
868.671	-1.82
868.838	0.14
869.005	1.75
869.172	1.07
869.339	-1.03
869.505	0.27
869.672	1.39
869.839	3.3
870.006	0.63
870.173	0.25
870.339	-0.5
870.506	3.43
870.673	-1.11
870.84	1.37
871.006	0.48
871.173	-0.06
871.34	0.88
871.506	-0.69
871.673	1.93
871.839	-0.91
872.006	0.34
872.173	-0.38
872.339	1.91
872.506	2.53
872.672	0.67
872.839	-0.32
873.005	2.51
873.172	2.5
873.338	1.95
873.505	1.14
873.671	1.2
873.838	0.44
874.004	-1.63
874.171	-0.05
874.337	0.99
874.503	2.87
874.67	0.02
874.836	-0.45
875.002	2.66
875.169	1.23
875.335	0.99
875.501	0.79
875.668	1.97
875.834	1.77
876	-0.36
876.166	3.08
876.332	1.71
876.499	2.83
876.665	0.11
876.831	1.79
876.997	4.21
877.163	1.12
877.329	0.57
877.495	-0.02
877.662	1.03
877.828	2.23
877.994	0.81
878.16	-2.05
878.326	0.96
878.492	-0.15
878.658	-0.98
878.824	1.67
878.99	3.18
879.156	-1.69
879.322	3.12
879.487	-1.03
879.653	1.96
879.819	1.19
879.985	0.65
880.151	0.09
880.317	2.62
880.483	0.47
880.648	1.7
880.814	-1.59
880.98	2.79
881.146	-1.63
881.312	-1.37
881.477	0.24
881.643	1.48
881.809	2.58
881.974	1.28
882.14	-1.5
882.306	1.81
882.471	3.58
882.637	-0.32
882.803	1.65
882.968	4.13
883.134	3.85
883.299	2.24
883.465	0.84
883.63	2.35
883.796	1.79
883.961	1.32
884.127	0.93
884.292	-1.74
884.458	-1.79
884.623	-1.79
