Data from Apollo_Calib_20240827__AbsoluteIrradiance__729__11-18-03-099.txt Node

Date: Wed Aug 28 11:18:03 BST 2024
User: biology
Spectrometer: FLMT08252
Trigger mode: 0
Integration Time (sec): 5.000000E-1
Scans to average: 5
Electric dark correction enabled: true
Nonlinearity correction enabled: false
Boxcar width: 0
XAxis mode: Wavelengths
Number of Pixels in Spectrum: 3648
>>>>>Begin Spectral Data<<<<<
179.588	-0
179.809	-0
180.03	-0
180.251	-0
180.473	-0
180.694	0
180.915	0
181.136	-0
181.357	0
181.578	-0
181.799	-0
182.02	-0
182.241	-0
182.462	-0
182.683	0
182.904	0
183.125	-0
183.346	0
183.567	0
183.788	0
184.009	-0
184.23	0
184.451	0
184.672	-0
184.892	0
185.113	0
185.334	0
185.555	-0
185.776	-0
185.996	0
186.217	0
186.438	0
186.659	0
186.879	0
187.1	0
187.321	-0
187.541	0
187.762	0
187.983	0
188.203	0
188.424	0
188.644	0
188.865	0
189.086	0
189.306	0
189.527	0
189.747	0
189.968	-0
190.188	0
190.409	0
190.629	0
190.849	0
191.07	0
191.29	0
191.511	0
191.731	-0
191.951	0
192.172	0
192.392	0
192.612	0
192.833	0
193.053	0
193.273	0
193.493	0
193.714	0
193.934	0
194.154	0
194.374	0
194.594	0
194.815	0
195.035	0
195.255	0
195.475	0
195.695	0
195.915	0
196.135	0
196.355	0
196.575	0
196.795	0
197.015	0
197.235	0
197.455	0
197.675	0
197.895	0
198.115	-0
198.335	0
198.555	0
198.775	0
198.995	0
199.214	0
199.434	0
199.654	0
199.874	0
200.094	1.42
200.313	0.4
200.533	0.35
200.753	0.09
200.973	1.92
201.192	1.77
201.412	-0.14
201.632	0.77
201.851	1.56
202.071	-0.04
202.291	-0.11
202.51	-0.16
202.73	1.1
202.95	0.26
203.169	0.17
203.389	0.75
203.608	0.7
203.828	0.16
204.047	0.04
204.267	0.91
204.486	0.66
204.706	0.46
204.925	0.16
205.145	0.25
205.364	0.64
205.583	1.06
205.803	0.27
206.022	0.12
206.242	0.76
206.461	0.39
206.68	0.26
206.9	0.22
207.119	1.01
207.338	1.09
207.557	0.35
207.777	0.27
207.996	0.51
208.215	0.92
208.434	0.19
208.654	-0.03
208.873	0.36
209.092	1.06
209.311	0.2
209.53	0.32
209.749	0.33
209.968	0.02
210.187	0.05
210.407	0.03
210.626	0.11
210.845	0.44
211.064	0.2
211.283	0.01
211.502	0.35
211.721	0.25
211.94	0.31
212.159	0.56
212.377	0.44
212.596	0.71
212.815	0.4
213.034	0.5
213.253	0.66
213.472	0.53
213.691	0.25
213.91	-0.06
214.128	0.22
214.347	0.52
214.566	-0.07
214.785	-0.08
215.003	0.24
215.222	0.32
215.441	0.08
215.66	-0.03
215.878	0.24
216.097	0.36
216.316	0.01
216.534	0.28
216.753	0.34
216.972	0.27
217.19	0.22
217.409	0.14
217.627	0.09
217.846	0.24
218.064	0.32
218.283	0.16
218.501	0.86
218.72	0.57
218.938	0.14
219.157	0.11
219.375	0.31
219.594	0.54
219.812	0.04
220.031	0.06
220.249	0.54
220.467	0.63
220.686	0.19
220.904	-0.08
221.122	0.15
221.341	0.55
221.559	0.17
221.777	-0.03
221.995	0.29
222.214	0.32
222.432	0.11
222.65	0.35
222.868	0.15
223.086	0.28
223.305	0.27
223.523	0.11
223.741	0.47
223.959	0.25
224.177	-0.03
224.395	0.04
224.613	0.21
224.831	0.23
225.049	0
225.267	0.17
225.485	0.31
225.703	0.11
225.921	0.15
226.139	0.06
226.357	0.42
226.575	0.26
226.793	0.11
227.011	0.75
227.229	0.18
227.447	0.46
227.665	0.14
227.883	0.03
228.1	0.18
228.318	0.27
228.536	-0.1
228.754	0.11
228.972	0.1
229.189	0.32
229.407	0.14
229.625	0.12
229.843	0.29
230.06	0.25
230.278	0.11
230.496	0.05
230.713	0.33
230.931	0.33
231.149	0.07
231.366	-0.01
231.584	0.14
231.801	0.59
232.019	0.06
232.236	0.02
232.454	0.05
232.671	0.23
232.889	0.19
233.106	0.07
233.324	0.11
233.541	0.05
233.759	0.01
233.976	0.09
234.194	0.18
234.411	0.13
234.628	-0.03
234.846	0.13
235.063	0.09
235.28	0.07
235.498	0.09
235.715	0.07
235.932	0.39
236.149	0.25
236.367	0.06
236.584	0.15
236.801	0.14
237.018	0.26
237.236	0.11
237.453	0.01
237.67	0.35
237.887	0.02
238.104	0.12
238.321	0.02
238.538	0.02
238.755	0.28
238.973	-0.04
239.19	0.15
239.407	0.23
239.624	0.09
239.841	-0.01
240.058	0
240.275	0.19
240.492	0.11
240.709	0.08
240.925	0.1
241.142	0.15
241.359	-0.01
241.576	0.01
241.793	0.06
242.01	0.11
242.227	0.18
242.444	0.25
242.66	0.24
242.877	0.26
243.094	0.05
243.311	0.18
243.527	0.08
243.744	0.09
243.961	0.18
244.178	0.06
244.394	0.11
244.611	0.18
244.828	0.3
245.044	0.04
245.261	0.14
245.477	0.13
245.694	0.09
245.911	0.05
246.127	0.16
246.344	0.29
246.56	0.15
246.777	0.08
246.993	0.2
247.21	0.16
247.426	0.19
247.643	0.08
247.859	0.05
248.076	0.08
248.292	0.35
248.508	0.04
248.725	0.13
248.941	0.15
249.157	0.24
249.374	0.06
249.59	0.1
249.806	0.18
250.023	0.34
250.239	0.03
250.455	0.02
250.671	0.07
250.888	0.17
251.104	0.18
251.32	0.11
251.536	0.12
251.752	0.12
251.969	0.15
252.185	0.13
252.401	0.28
252.617	0.18
252.833	0.02
253.049	0.12
253.265	0.08
253.481	0.15
253.697	0.03
253.913	-0
254.129	0.15
254.345	0.14
254.561	0.1
254.777	0.1
254.993	0.19
255.209	0.09
255.425	0.08
255.641	0.03
255.857	0.26
256.073	0.16
256.288	0.01
256.504	0.06
256.72	0.12
256.936	0.16
257.152	0.13
257.367	-0.02
257.583	0.16
257.799	0.13
258.015	0.05
258.23	0.06
258.446	0.22
258.662	0.12
258.877	0.06
259.093	0.01
259.309	0.16
259.524	0.15
259.74	0.05
259.955	0.06
260.171	0.12
260.387	0.12
260.602	0.12
260.818	0.19
261.033	0.02
261.249	0.13
261.464	0.12
261.68	-0.05
261.895	0.17
262.11	0.22
262.326	0.07
262.541	0.05
262.757	0.2
262.972	0.15
263.187	0.1
263.403	0.16
263.618	0.2
263.833	0.05
264.049	-0.05
264.264	0.11
264.479	0.12
264.694	0.11
264.91	0.09
265.125	0.06
265.34	0.22
265.555	0.25
265.77	0.1
265.986	0.1
266.201	0.11
266.416	0.17
266.631	0.11
266.846	0.08
267.061	0.14
267.276	0.2
267.491	0.02
267.706	0.05
267.921	0.2
268.136	0.14
268.351	0.09
268.566	0.01
268.781	0.19
268.996	0.1
269.211	0.08
269.426	0.11
269.641	0.07
269.856	0.18
270.071	0.04
270.285	-0
270.5	0.15
270.715	0.14
270.93	0.1
271.145	0.08
271.359	0.13
271.574	0.09
271.789	0.09
272.004	0.02
272.218	0.09
272.433	0.13
272.648	0.05
272.862	0.15
273.077	0.04
273.292	0.1
273.506	0.05
273.721	0.12
273.936	0.16
274.15	0.14
274.365	0.09
274.579	0.16
274.794	0.15
275.008	0.17
275.223	-0.02
275.437	0.11
275.652	0.15
275.866	0.14
276.081	0.07
276.295	0.16
276.509	0.16
276.724	0.14
276.938	0.06
277.153	0.1
277.367	0.14
277.581	0.08
277.796	-0.01
278.01	0.05
278.224	0.19
278.438	0.28
278.653	0.06
278.867	0.09
279.081	-0.02
279.295	0.06
279.51	0.11
279.724	0.01
279.938	0.12
280.152	0.13
280.366	0.05
280.58	0.11
280.794	0.2
281.008	0.11
281.222	0.13
281.437	0.24
281.651	0.13
281.865	0.19
282.079	0.09
282.293	-0.01
282.507	0.07
282.721	0.08
282.935	0.1
283.148	0.02
283.362	0.07
283.576	0.04
283.79	0.1
284.004	0.02
284.218	0.14
284.432	0.07
284.646	0.08
284.859	0.05
285.073	0.06
285.287	0.08
285.501	0.03
285.714	0.06
285.928	0.08
286.142	0.07
286.356	0.01
286.569	0.07
286.783	0.18
286.997	0.19
287.21	0.08
287.424	0.09
287.637	0.06
287.851	0.03
288.065	0.15
288.278	0.1
288.492	0.12
288.705	0.09
288.919	0.12
289.132	-0.02
289.346	0.17
289.559	0
289.773	0.06
289.986	0.09
290.2	0.12
290.413	0.19
290.626	0.01
290.84	0.1
291.053	0.07
291.267	0.17
291.48	0.08
291.693	0.04
291.906	0.01
292.12	0.05
292.333	0.06
292.546	0.06
292.76	0.19
292.973	0.14
293.186	0.14
293.399	0.07
293.612	0.1
293.826	0.1
294.039	0.05
294.252	0.11
294.465	0.14
294.678	0.11
294.891	0.08
295.104	0.03
295.317	0.09
295.53	0.1
295.743	0.07
295.956	0.11
296.169	0.15
296.382	0.13
296.595	0.09
296.808	0.07
297.021	0.17
297.234	0.14
297.447	0.11
297.66	0.11
297.873	0.17
298.086	0.1
298.299	0.05
298.511	0
298.724	0.05
298.937	0.05
299.15	0.02
299.363	0.1
299.575	0.13
299.788	0.09
300.001	0.05
300.213	0.05
300.426	0.07
300.639	0.02
300.852	0.07
301.064	0.12
301.277	0.15
301.489	0.14
301.702	0.1
301.915	0.13
302.127	0.07
302.34	0.08
302.552	0.09
302.765	0.08
302.977	0.12
303.19	0.03
303.402	0.06
303.615	0.07
303.827	0.08
304.04	0.07
304.252	0.09
304.464	0.13
304.677	0.2
304.889	0.15
305.102	0.05
305.314	0.03
305.526	0.12
305.739	0.08
305.951	0.04
306.163	0.07
306.375	0.12
306.588	0.07
306.8	0.02
307.012	0.02
307.224	0.1
307.436	0.16
307.649	-0.01
307.861	0.09
308.073	0.11
308.285	0.01
308.497	0.01
308.709	0.08
308.921	0.11
309.133	0.13
309.346	0.06
309.558	0.1
309.77	0.14
309.982	0.16
310.194	0.14
310.406	0.08
310.617	0.18
310.829	0.09
311.041	0.12
311.253	0.01
311.465	0.14
311.677	0.08
311.889	0.09
312.101	0.03
312.313	0.14
312.524	0.11
312.736	0.01
312.948	0.08
313.16	0.13
313.372	0.12
313.583	0.12
313.795	0.06
314.007	0.07
314.218	0.15
314.43	0.09
314.642	0.03
314.853	0.03
315.065	0.15
315.277	0.08
315.488	0.1
315.7	0.13
315.912	0.12
316.123	0.04
316.335	0.06
316.546	0.19
316.758	0.07
316.969	0.03
317.181	0.1
317.392	0.05
317.604	0.11
317.815	0.09
318.026	0.05
318.238	0.06
318.449	0.11
318.661	0.06
318.872	0.05
319.083	0.02
319.295	0.11
319.506	0.05
319.717	0.08
319.929	0.12
320.14	0.09
320.351	0.06
320.562	0.1
320.774	0.1
320.985	0.08
321.196	0.06
321.407	0.04
321.618	0.13
321.829	0.11
322.041	0.09
322.252	0.05
322.463	0.11
322.674	0.12
322.885	0.04
323.096	0.04
323.307	0.07
323.518	0.09
323.729	0.09
323.94	0.04
324.151	0.04
324.362	0.1
324.573	0.11
324.784	0.05
324.995	0.16
325.206	0.07
325.417	0.1
325.628	0.03
325.838	0.05
326.049	0.1
326.26	0.12
326.471	0.06
326.682	0.07
326.892	0.11
327.103	0.04
327.314	0.05
327.525	0.16
327.735	0.09
327.946	0.1
328.157	0.04
328.368	0.14
328.578	0.06
328.789	0.1
328.999	0.08
329.21	0.05
329.421	0.1
329.631	0.01
329.842	0.04
330.052	0.1
330.263	0.09
330.473	0.15
330.684	0.06
330.894	0.09
331.105	0.12
331.315	0.07
331.526	0.01
331.736	0.11
331.947	0.11
332.157	0.13
332.367	0.02
332.578	0.11
332.788	0.16
332.999	0.07
333.209	0.11
333.419	0.03
333.629	0.13
333.84	0.09
334.05	0.08
334.26	0.2
334.47	0.09
334.681	0.13
334.891	0.03
335.101	0.1
335.311	0.17
335.521	0.07
335.732	0.05
335.942	0.13
336.152	0.13
336.362	0.12
336.572	0.09
336.782	0.09
336.992	0.07
337.202	0.07
337.412	0.05
337.622	0.11
337.832	0.11
338.042	0.08
338.252	0.05
338.462	0.07
338.672	0.12
338.882	0.1
339.092	0.12
339.302	0.14
339.511	0.11
339.721	0.01
339.931	0.05
340.141	0.11
340.351	0.12
340.561	0.08
340.77	0.09
340.98	0.11
341.19	0.12
341.4	0.05
341.609	0.07
341.819	0.06
342.029	0.03
342.238	0.07
342.448	0.07
342.658	0.1
342.867	0.1
343.077	0.08
343.286	0.12
343.496	0.09
343.706	0.13
343.915	0.05
344.125	0.08
344.334	0.11
344.544	-0.01
344.753	0.07
344.963	0.06
345.172	0.03
345.381	0.01
345.591	0.03
345.8	0.08
346.01	0.13
346.219	0.12
346.428	-0.04
346.638	0.09
346.847	0.08
347.056	0.12
347.266	0.06
347.475	0.09
347.684	0.13
347.893	0.09
348.103	0.05
348.312	0.03
348.521	0.04
348.73	0.08
348.94	0.12
349.149	0.05
349.358	0.06
349.567	0.07
349.776	0.04
349.985	0.05
350.194	0.12
350.403	0.07
350.612	0.02
350.821	0.04
351.03	0.07
351.239	0.02
351.448	0.09
351.657	0.03
351.866	0.18
352.075	0.08
352.284	0.14
352.493	-0
352.702	0.13
352.911	0.08
353.12	0.07
353.329	0.07
353.538	0.11
353.746	0.06
353.955	0.08
354.164	0.13
354.373	0.09
354.582	0.13
354.79	0.05
354.999	0.1
355.208	0.07
355.416	0.12
355.625	0.05
355.834	0.08
356.042	0.07
356.251	0.08
356.46	0.05
356.668	0.08
356.877	0.17
357.085	0.13
357.294	-0.01
357.503	0.08
357.711	0.08
357.92	0.2
358.128	0.09
358.337	0.06
358.545	0.1
358.754	0.02
358.962	0.08
359.17	0.08
359.379	0.1
359.587	0.14
359.796	0.06
360.004	0.14
360.212	0.15
360.421	0.13
360.629	0.07
360.837	0.04
361.046	0.1
361.254	0.18
361.462	0.11
361.67	0.06
361.879	0.12
362.087	0.15
362.295	0.08
362.503	0.06
362.711	0.05
362.92	0.05
363.128	0.03
363.336	0.07
363.544	0.05
363.752	0.06
363.96	0.01
364.168	0.08
364.376	0.09
364.584	0.08
364.792	0.15
365	0.11
365.208	0.08
365.416	0.09
365.624	0.15
365.832	0.09
366.04	0.16
366.248	0.07
366.456	0.09
366.664	0.06
366.872	0.06
367.079	0.05
367.287	0.07
367.495	0.07
367.703	0.09
367.911	0.07
368.118	0.08
368.326	0.08
368.534	0.04
368.742	0.12
368.949	0.02
369.157	0.08
369.365	0.11
369.572	0.08
369.78	0.04
369.988	0.09
370.195	0.06
370.403	0.1
370.61	0.06
370.818	0.08
371.026	0.14
371.233	0.04
371.441	0.11
371.648	0.04
371.856	0.07
372.063	0.11
372.271	0.1
372.478	0.08
372.685	0.05
372.893	0.12
373.1	0.07
373.308	0.07
373.515	0.16
373.722	0.11
373.93	0.11
374.137	0.11
374.344	0.15
374.552	0.15
374.759	0.11
374.966	0.11
375.173	0.07
375.381	0.14
375.588	0.03
375.795	-0
376.002	0.03
376.209	0.05
376.417	0.09
376.624	0.09
376.831	0.15
377.038	0.08
377.245	-0.02
377.452	0.06
377.659	0.12
377.866	0.08
378.073	0.1
378.28	0.05
378.487	0.09
378.694	0.11
378.901	0.08
379.108	0.08
379.315	0.1
379.522	0.18
379.729	0.1
379.936	0.06
380.143	0.08
380.35	0.1
380.557	0.09
380.763	0.12
380.97	0.08
381.177	0.12
381.384	0.09
381.591	0.07
381.797	0.12
382.004	0.12
382.211	0.1
382.418	0.02
382.624	0.1
382.831	0.07
383.038	0.08
383.244	0.09
383.451	0.08
383.658	0.13
383.864	0.07
384.071	0.02
384.277	0.09
384.484	0.03
384.69	0.14
384.897	0.09
385.103	0.04
385.31	0.05
385.516	0.07
385.723	0.05
385.929	0.08
386.136	0.06
386.342	0.1
386.549	0.04
386.755	0.12
386.961	0.13
387.168	0.06
387.374	0.08
387.58	0.11
387.787	0.08
387.993	0.08
388.199	0.06
388.406	0.07
388.612	0.07
388.818	0.06
389.024	0.03
389.231	0.12
389.437	0.13
389.643	0.11
389.849	0.1
390.055	0.12
390.261	0.09
390.467	0.11
390.674	0.01
390.88	0.08
391.086	0.11
391.292	0.01
391.498	0.13
391.704	0.12
391.91	0.11
392.116	0.06
392.322	0
392.528	0.12
392.734	0.11
392.94	0.13
393.146	0.08
393.352	0.1
393.557	0.11
393.763	0.08
393.969	0.1
394.175	0.07
394.381	0.13
394.587	0.06
394.792	0.09
394.998	0.07
395.204	0.11
395.41	0.09
395.615	0.14
395.821	0.14
396.027	0.1
396.233	0.05
396.438	0.07
396.644	0.11
396.85	0.11
397.055	0.1
397.261	0.12
397.466	0.18
397.672	0.12
397.878	0.14
398.083	0.11
398.289	0.04
398.494	0.15
398.7	0.17
398.905	0.02
399.111	0.17
399.316	0.06
399.522	0.08
399.727	0.07
399.932	0.06
400.138	0.03
400.343	0.17
400.549	0.12
400.754	0.12
400.959	0.09
401.165	0.07
401.37	0.09
401.575	0.17
401.78	0.13
401.986	0.1
402.191	0.1
402.396	0.15
402.601	0.13
402.807	0.19
403.012	0.1
403.217	0.15
403.422	0.11
403.627	0.13
403.832	0.08
404.037	0.15
404.243	0.14
404.448	0.11
404.653	0.12
404.858	0.14
405.063	0.18
405.268	0.11
405.473	0.03
405.678	0.15
405.883	0.25
406.088	0.18
406.293	0.09
406.498	0.08
406.703	0.19
406.907	0.13
407.112	0.13
407.317	0.15
407.522	0.18
407.727	0.1
407.932	0.17
408.136	0.25
408.341	0.19
408.546	0.22
408.751	0.17
408.956	0.23
409.16	0.19
409.365	0.22
409.57	0.15
409.774	0.16
409.979	0.24
410.184	0.23
410.388	0.16
410.593	0.24
410.798	0.21
411.002	0.22
411.207	0.28
411.411	0.2
411.616	0.22
411.82	0.24
412.025	0.24
412.229	0.21
412.434	0.32
412.638	0.28
412.843	0.27
413.047	0.27
413.252	0.25
413.456	0.29
413.66	0.3
413.865	0.27
414.069	0.4
414.273	0.32
414.478	0.31
414.682	0.37
414.886	0.34
415.091	0.3
415.295	0.37
415.499	0.41
415.703	0.36
415.908	0.43
416.112	0.4
416.316	0.5
416.52	0.4
416.724	0.39
416.929	0.45
417.133	0.6
417.337	0.48
417.541	0.5
417.745	0.5
417.949	0.63
418.153	0.66
418.357	0.54
418.561	0.78
418.765	0.68
418.969	0.79
419.173	0.72
419.377	0.71
419.581	0.88
419.785	0.78
419.989	0.78
420.193	0.83
420.397	0.84
420.601	0.97
420.804	1
421.008	0.92
421.212	1.07
421.416	1.01
421.62	0.98
421.823	1.03
422.027	1.15
422.231	1.11
422.435	1.04
422.638	1.14
422.842	1.05
423.046	1.17
423.249	1.29
423.453	1.26
423.657	1.32
423.86	1.3
424.064	1.35
424.268	1.49
424.471	1.39
424.675	1.56
424.878	1.55
425.082	1.51
425.285	1.67
425.489	1.63
425.692	1.62
425.896	1.69
426.099	1.74
426.303	1.77
426.506	1.8
426.71	1.93
426.913	2.04
427.116	2.02
427.32	2.11
427.523	2.03
427.726	2.18
427.93	2.08
428.133	2.2
428.336	2.26
428.54	2.3
428.743	2.44
428.946	2.52
429.149	2.43
429.353	2.53
429.556	2.49
429.759	2.6
429.962	2.52
430.165	2.66
430.368	2.45
430.571	2.52
430.775	2.54
430.978	2.56
431.181	2.6
431.384	2.59
431.587	2.66
431.79	2.8
431.993	2.69
432.196	2.79
432.399	2.91
432.602	3.04
432.805	2.97
433.008	3.17
433.211	3.08
433.414	3.29
433.616	3.23
433.819	3.22
434.022	3.23
434.225	3.4
434.428	3.3
434.631	3.64
434.833	3.45
435.036	3.58
435.239	3.6
435.442	3.6
435.645	3.64
435.847	3.73
436.05	3.92
436.253	3.9
436.455	3.84
436.658	3.85
436.861	4.03
437.063	4.01
437.266	3.96
437.468	4.19
437.671	4.31
437.874	4.28
438.076	4.23
438.279	4.39
438.481	4.43
438.684	4.74
438.886	4.61
439.089	4.61
439.291	4.71
439.494	4.87
439.696	4.93
439.899	5.15
440.101	5.27
440.303	5.38
440.506	5.7
440.708	5.56
440.91	5.72
441.113	5.71
441.315	5.92
441.517	5.74
441.72	6.02
441.922	5.83
442.124	5.76
442.326	5.99
442.529	6.13
442.731	6.08
442.933	6.28
443.135	6.18
443.337	6.24
443.539	6.43
443.742	6.32
443.944	6.58
444.146	6.56
444.348	6.6
444.55	6.56
444.752	6.6
444.954	6.57
445.156	6.6
445.358	6.79
445.56	6.9
445.762	6.87
445.964	7
446.166	6.86
446.368	6.87
446.57	6.89
446.772	6.88
446.974	6.75
447.175	6.95
447.377	6.74
447.579	6.93
447.781	6.82
447.983	6.84
448.184	6.57
448.386	6.84
448.588	6.54
448.79	6.57
448.991	6.81
449.193	6.79
449.395	6.48
449.597	6.39
449.798	6.35
450	6.17
450.202	6.15
450.403	6.12
450.605	6.14
450.806	6.03
451.008	5.81
451.21	5.84
451.411	5.68
451.613	5.34
451.814	5.46
452.016	5.45
452.217	5.12
452.419	5.23
452.62	4.99
452.821	5.02
453.023	4.95
453.224	4.75
453.426	4.5
453.627	4.24
453.828	4.39
454.03	4.38
454.231	4.34
454.432	4.27
454.634	4.22
454.835	3.92
455.036	3.92
455.238	3.81
455.439	3.79
455.64	3.52
455.841	3.51
456.042	3.51
456.244	3.43
456.445	3.35
456.646	3.18
456.847	3.25
457.048	3.13
457.249	3.21
457.45	3.15
457.651	2.83
457.852	2.85
458.054	2.64
458.255	2.62
458.456	2.65
458.657	2.65
458.858	2.44
459.058	2.38
459.259	2.48
459.46	2.34
459.661	2.32
459.862	2.39
460.063	2.28
460.264	2.31
460.465	2.18
460.666	2.24
460.866	2.07
461.067	1.94
461.268	2.01
461.469	1.99
461.67	1.9
461.87	1.88
462.071	1.9
462.272	1.82
462.473	1.84
462.673	1.82
462.874	1.82
463.075	1.84
463.275	1.78
463.476	1.91
463.676	1.82
463.877	1.79
464.078	1.76
464.278	1.82
464.479	1.72
464.679	1.72
464.88	1.73
465.08	1.73
465.281	1.59
465.481	1.55
465.682	1.44
465.882	1.55
466.083	1.42
466.283	1.42
466.483	1.4
466.684	1.3
466.884	1.28
467.085	1.32
467.285	1.37
467.485	1.23
467.686	1.28
467.886	1.17
468.086	1.18
468.286	1.2
468.487	1.25
468.687	1.11
468.887	1.08
469.087	1.2
469.287	1.23
469.488	1.02
469.688	1.15
469.888	1.11
470.088	1.17
470.288	1.11
470.488	1.05
470.688	0.97
470.888	0.98
471.088	0.9
471.288	1.05
471.488	0.98
471.688	0.99
471.888	0.93
472.088	0.99
472.288	0.97
472.488	0.85
472.688	0.85
472.888	0.92
473.088	0.84
473.288	0.86
473.488	0.82
473.688	0.95
473.887	0.85
474.087	0.8
474.287	0.87
474.487	0.77
474.687	0.88
474.886	0.81
475.086	0.79
475.286	0.77
475.486	0.77
475.685	0.75
475.885	0.76
476.085	0.78
476.284	0.76
476.484	0.76
476.684	0.79
476.883	0.82
477.083	0.7
477.282	0.7
477.482	0.76
477.681	0.76
477.881	0.68
478.08	0.7
478.28	0.68
478.479	0.73
478.679	0.77
478.878	0.68
479.078	0.64
479.277	0.72
479.477	0.69
479.676	0.69
479.875	0.7
480.075	0.61
480.274	0.71
480.473	0.72
480.673	0.66
480.872	0.71
481.071	0.7
481.271	0.71
481.47	0.66
481.669	0.67
481.868	0.68
482.067	0.67
482.267	0.65
482.466	0.66
482.665	0.65
482.864	0.66
483.063	0.63
483.262	0.7
483.461	0.72
483.661	0.72
483.86	0.67
484.059	0.73
484.258	0.71
484.457	0.68
484.656	0.7
484.855	0.71
485.054	0.67
485.253	0.68
485.452	0.67
485.651	0.68
485.849	0.71
486.048	0.66
486.247	0.7
486.446	0.72
486.645	0.66
486.844	0.69
487.043	0.7
487.241	0.73
487.44	0.69
487.639	0.72
487.838	0.75
488.037	0.73
488.235	0.78
488.434	0.72
488.633	0.73
488.831	0.77
489.03	0.8
489.229	0.77
489.427	0.75
489.626	0.81
489.825	0.82
490.023	0.82
490.222	0.8
490.42	0.83
490.619	0.84
490.817	0.87
491.016	0.8
491.214	0.87
491.413	0.82
491.611	0.82
491.81	0.83
492.008	0.88
492.207	0.89
492.405	0.91
492.604	0.83
492.802	0.92
493	0.95
493.199	0.92
493.397	0.94
493.595	0.94
493.794	0.92
493.992	0.99
494.19	0.96
494.388	1
494.587	0.98
494.785	1
494.983	0.93
495.181	1.05
495.379	1.06
495.578	1.08
495.776	1.04
495.974	1.06
496.172	1.06
496.37	1.11
496.568	1.09
496.766	1.11
496.964	1.15
497.162	1.14
497.36	1.12
497.558	1.18
497.756	1.21
497.954	1.17
498.152	1.19
498.35	1.24
498.548	1.22
498.746	1.22
498.944	1.24
499.142	1.27
499.34	1.28
499.538	1.32
499.736	1.23
499.933	1.35
500.131	1.34
500.329	1.4
500.527	1.39
500.725	1.44
500.922	1.41
501.12	1.41
501.318	1.47
501.516	1.45
501.713	1.48
501.911	1.48
502.109	1.47
502.306	1.54
502.504	1.5
502.701	1.52
502.899	1.52
503.097	1.64
503.294	1.57
503.492	1.62
503.689	1.63
503.887	1.64
504.084	1.69
504.282	1.65
504.479	1.61
504.677	1.73
504.874	1.68
505.072	1.64
505.269	1.75
505.466	1.78
505.664	1.78
505.861	1.71
506.059	1.73
506.256	1.8
506.453	1.8
506.651	1.9
506.848	1.87
507.045	1.85
507.242	1.87
507.44	1.88
507.637	1.9
507.834	1.89
508.031	1.97
508.229	1.92
508.426	1.91
508.623	2.01
508.82	2
509.017	1.96
509.214	1.93
509.411	2.04
509.608	1.98
509.805	2.04
510.003	2.04
510.2	2.04
510.397	2.16
510.594	2.06
510.791	2.09
510.988	2.11
511.184	2.11
511.381	2.06
511.578	2.15
511.775	2.16
511.972	2.14
512.169	2.16
512.366	2.21
512.563	2.22
512.76	2.23
512.956	2.29
513.153	2.23
513.35	2.24
513.547	2.17
513.744	2.3
513.94	2.22
514.137	2.33
514.334	2.31
514.53	2.32
514.727	2.44
514.924	2.41
515.12	2.37
515.317	2.35
515.514	2.34
515.71	2.32
515.907	2.41
516.103	2.49
516.3	2.41
516.497	2.48
516.693	2.48
516.89	2.48
517.086	2.45
517.283	2.52
517.479	2.41
517.676	2.47
517.872	2.53
518.068	2.46
518.265	2.5
518.461	2.49
518.658	2.5
518.854	2.54
519.05	2.55
519.247	2.57
519.443	2.55
519.639	2.62
519.836	2.55
520.032	2.53
520.228	2.6
520.424	2.67
520.621	2.64
520.817	2.62
521.013	2.65
521.209	2.67
521.405	2.72
521.601	2.64
521.798	2.63
521.994	2.72
522.19	2.59
522.386	2.64
522.582	2.69
522.778	2.79
522.974	2.66
523.17	2.7
523.366	2.66
523.562	2.69
523.758	2.71
523.954	2.66
524.15	2.73
524.346	2.73
524.542	2.75
524.738	2.74
524.934	2.83
525.129	2.76
525.325	2.75
525.521	2.73
525.717	2.85
525.913	2.8
526.109	2.77
526.304	2.82
526.5	2.83
526.696	2.84
526.892	2.79
527.087	2.85
527.283	2.82
527.479	2.85
527.674	2.74
527.87	2.84
528.066	2.85
528.261	2.84
528.457	2.81
528.653	2.9
528.848	2.87
529.044	2.88
529.239	2.84
529.435	2.89
529.63	2.82
529.826	2.9
530.021	2.83
530.217	2.94
530.412	2.85
530.608	2.86
530.803	2.88
530.999	2.86
531.194	2.84
531.389	2.93
531.585	2.89
531.78	2.95
531.975	2.9
532.171	2.95
532.366	2.92
532.561	2.91
532.757	2.91
532.952	2.97
533.147	2.88
533.342	2.92
533.538	2.92
533.733	3
533.928	2.87
534.123	2.91
534.318	2.94
534.513	2.92
534.709	2.98
534.904	2.97
535.099	2.98
535.294	2.98
535.489	2.96
535.684	2.96
535.879	2.91
536.074	2.96
536.269	2.99
536.464	3.01
536.659	2.99
536.854	2.95
537.049	3.01
537.244	2.99
537.439	2.98
537.634	3
537.828	3.02
538.023	3.01
538.218	3
538.413	3
538.608	3
538.803	3.01
538.997	2.97
539.192	3
539.387	2.96
539.582	2.99
539.776	2.96
539.971	2.99
540.166	3.02
540.36	2.97
540.555	3.04
540.75	3.01
540.944	2.99
541.139	2.98
541.334	3.05
541.528	3.02
541.723	3.04
541.917	3.01
542.112	2.98
542.306	2.97
542.501	2.96
542.695	3.01
542.89	2.93
543.084	3
543.279	3.05
543.473	3.05
543.668	3.05
543.862	2.97
544.056	2.99
544.251	3.02
544.445	3.04
544.64	3.08
544.834	2.91
545.028	2.87
545.222	3.02
545.417	3.13
545.611	3.03
545.805	3.03
546	2.96
546.194	3.04
546.388	3.01
546.582	3.02
546.776	3.01
546.97	3.04
547.165	3.02
547.359	3.01
547.553	2.98
547.747	3.01
547.941	3.14
548.135	3.04
548.329	3.03
548.523	3.07
548.717	2.98
548.911	2.99
549.105	3
549.299	3.02
549.493	3.08
549.687	2.99
549.881	3.04
550.075	3
550.269	2.94
550.463	3.07
550.657	3
550.85	3.02
551.044	2.99
551.238	3.04
551.432	3.03
551.626	3.02
551.82	3.08
552.013	2.97
552.207	3.05
552.401	3.07
552.594	3.02
552.788	3.01
552.982	3.05
553.176	3.02
553.369	3.14
553.563	3.06
553.756	3.04
553.95	3.07
554.144	3.05
554.337	3.04
554.531	2.99
554.724	3.02
554.918	3.03
555.111	3.03
555.305	3.07
555.498	3.04
555.692	3.08
555.885	3.04
556.079	3.03
556.272	3.04
556.466	3.02
556.659	3.05
556.852	3.06
557.046	3.03
557.239	3.05
557.432	3.02
557.626	3.05
557.819	3.05
558.012	3.09
558.206	3.11
558.399	3.05
558.592	3.06
558.785	3.04
558.979	3.07
559.172	3.04
559.365	3.06
559.558	2.99
559.751	2.97
559.944	3.09
560.138	2.99
560.331	3
560.524	3.07
560.717	2.99
560.91	3.01
561.103	3.07
561.296	3
561.489	3.09
561.682	3.07
561.875	3.08
562.068	3.08
562.261	3.02
562.454	3.14
562.647	3.02
562.84	3.08
563.032	3.01
563.225	3.02
563.418	2.98
563.611	3.1
563.804	3.03
563.997	2.94
564.19	2.93
564.382	3.03
564.575	2.99
564.768	3.01
564.961	3.06
565.153	3.02
565.346	3
565.539	3.08
565.731	3.07
565.924	3.09
566.117	3.09
566.309	3.04
566.502	3.01
566.695	2.98
566.887	3.06
567.08	3.04
567.272	3.06
567.465	2.99
567.657	3.03
567.85	3
568.042	3.04
568.235	3.07
568.427	2.97
568.62	3.01
568.812	3.01
569.005	3.08
569.197	3
569.389	3.06
569.582	3.07
569.774	3.03
569.966	2.98
570.159	2.95
570.351	3
570.543	3.01
570.736	3.01
570.928	2.95
571.12	3
571.312	2.95
571.505	2.88
571.697	3.07
571.889	3
572.081	3.02
572.273	2.94
572.465	3.06
572.658	3.01
572.85	2.99
573.042	2.99
573.234	2.96
573.426	3.02
573.618	2.96
573.81	3.04
574.002	3
574.194	3.03
574.386	2.93
574.578	2.91
574.77	2.97
574.962	3.01
575.154	2.93
575.346	2.96
575.538	2.91
575.729	2.95
575.921	3
576.113	2.99
576.305	2.97
576.497	3
576.689	2.95
576.88	2.88
577.072	3
577.264	2.94
577.456	2.98
577.647	2.87
577.839	2.99
578.031	2.97
578.223	2.92
578.414	2.87
578.606	2.98
578.798	2.94
578.989	2.94
579.181	2.97
579.372	2.97
579.564	2.92
579.755	2.93
579.947	2.93
580.139	2.98
580.33	2.82
580.522	2.91
580.713	2.89
580.905	2.88
581.096	2.96
581.287	2.9
581.479	2.88
581.67	2.92
581.862	2.91
582.053	2.94
582.244	2.85
582.436	2.9
582.627	2.87
582.818	2.87
583.01	2.86
583.201	2.92
583.392	2.93
583.583	2.92
583.775	2.83
583.966	2.83
584.157	2.92
584.348	2.86
584.54	2.8
584.731	2.88
584.922	2.83
585.113	2.8
585.304	2.85
585.495	2.87
585.686	2.86
585.877	2.89
586.068	2.85
586.259	2.9
586.45	2.83
586.641	2.78
586.832	2.8
587.023	2.84
587.214	2.82
587.405	2.85
587.596	2.77
587.787	2.81
587.978	2.81
588.169	2.73
588.36	2.72
588.551	2.81
588.742	2.78
588.932	2.85
589.123	2.73
589.314	2.84
589.505	2.77
589.696	2.77
589.886	2.75
590.077	2.79
590.268	2.73
590.458	2.72
590.649	2.65
590.84	2.77
591.03	2.73
591.221	2.72
591.412	2.67
591.602	2.81
591.793	2.77
591.984	2.68
592.174	2.7
592.365	2.81
592.555	2.61
592.746	2.69
592.936	2.71
593.127	2.71
593.317	2.75
593.508	2.67
593.698	2.67
593.889	2.69
594.079	2.63
594.269	2.64
594.46	2.62
594.65	2.66
594.84	2.66
595.031	2.61
595.221	2.65
595.411	2.61
595.602	2.64
595.792	2.58
595.982	2.57
596.172	2.69
596.363	2.62
596.553	2.62
596.743	2.56
596.933	2.6
597.123	2.61
597.314	2.52
597.504	2.54
597.694	2.59
597.884	2.52
598.074	2.58
598.264	2.53
598.454	2.56
598.644	2.5
598.834	2.56
599.024	2.45
599.214	2.5
599.404	2.57
599.594	2.54
599.784	2.53
599.974	2.57
600.164	2.57
600.354	2.47
600.544	2.46
600.734	2.55
600.924	2.51
601.114	2.43
601.303	2.49
601.493	2.5
601.683	2.44
601.873	2.48
602.063	2.42
602.252	2.49
602.442	2.38
602.632	2.43
602.821	2.42
603.011	2.46
603.201	2.41
603.39	2.41
603.58	2.35
603.77	2.44
603.959	2.43
604.149	2.4
604.339	2.39
604.528	2.46
604.718	2.41
604.907	2.4
605.097	2.34
605.286	2.35
605.476	2.35
605.665	2.38
605.855	2.35
606.044	2.42
606.234	2.36
606.423	2.28
606.612	2.3
606.802	2.3
606.991	2.3
607.181	2.33
607.37	2.29
607.559	2.21
607.749	2.28
607.938	2.27
608.127	2.28
608.316	2.25
608.506	2.27
608.695	2.28
608.884	2.24
609.073	2.28
609.263	2.27
609.452	2.26
609.641	2.22
609.83	2.15
610.019	2.24
610.208	2.18
610.397	2.18
610.586	2.24
610.775	2.15
610.965	2.16
611.154	2.12
611.343	2.18
611.532	2.14
611.721	2.19
611.91	2.1
612.099	2.14
612.287	2.11
612.476	2.07
612.665	2.15
612.854	2.08
613.043	2.13
613.232	2.14
613.421	1.99
613.61	2.12
613.798	2.06
613.987	2.11
614.176	2.03
614.365	2.09
614.554	2.07
614.742	2.09
614.931	1.99
615.12	2.1
615.309	2.05
615.497	2.05
615.686	1.96
615.875	2.03
616.063	1.98
616.252	1.97
616.44	2
616.629	1.97
616.818	2.03
617.006	1.97
617.195	1.93
617.383	1.96
617.572	1.96
617.76	1.93
617.949	1.94
618.137	1.98
618.326	1.95
618.514	1.84
618.703	1.86
618.891	1.98
619.079	1.85
619.268	1.93
619.456	1.81
619.644	1.93
619.833	1.85
620.021	1.81
620.209	1.76
620.398	1.85
620.586	1.85
620.774	1.89
620.962	1.85
621.151	1.89
621.339	1.8
621.527	1.82
621.715	1.75
621.903	1.77
622.092	1.77
622.28	1.86
622.468	1.7
622.656	1.78
622.844	1.75
623.032	1.8
623.22	1.7
623.408	1.8
623.596	1.78
623.784	1.79
623.972	1.71
624.16	1.73
624.348	1.83
624.536	1.72
624.724	1.68
624.912	1.74
625.1	1.7
625.288	1.7
625.476	1.64
625.664	1.74
625.851	1.66
626.039	1.71
626.227	1.66
626.415	1.67
626.603	1.6
626.79	1.63
626.978	1.67
627.166	1.67
627.354	1.61
627.541	1.59
627.729	1.54
627.917	1.63
628.104	1.68
628.292	1.55
628.48	1.63
628.667	1.59
628.855	1.6
629.042	1.62
629.23	1.55
629.418	1.52
629.605	1.53
629.793	1.49
629.98	1.53
630.168	1.57
630.355	1.53
630.543	1.57
630.73	1.5
630.917	1.51
631.105	1.57
631.292	1.52
631.48	1.5
631.667	1.58
631.854	1.46
632.042	1.51
632.229	1.4
632.416	1.49
632.604	1.51
632.791	1.38
632.978	1.48
633.165	1.46
633.353	1.49
633.54	1.52
633.727	1.35
633.914	1.37
634.101	1.33
634.289	1.53
634.476	1.38
634.663	1.34
634.85	1.42
635.037	1.34
635.224	1.29
635.411	1.42
635.598	1.42
635.785	1.36
635.972	1.4
636.159	1.41
636.346	1.28
636.533	1.33
636.72	1.29
636.907	1.31
637.094	1.35
637.281	1.29
637.468	1.34
637.655	1.31
637.842	1.32
638.029	1.27
638.215	1.31
638.402	1.3
638.589	1.27
638.776	1.24
638.963	1.23
639.149	1.31
639.336	1.3
639.523	1.25
639.709	1.27
639.896	1.25
640.083	1.29
640.27	1.29
640.456	1.17
640.643	1.26
640.829	1.14
641.016	1.18
641.203	1.2
641.389	1.27
641.576	1.16
641.762	1.2
641.949	1.14
642.135	1.21
642.322	1.18
642.508	1.11
642.695	1.15
642.881	1.13
643.068	1.07
643.254	1.13
643.441	1.2
643.627	1.12
643.813	1.06
644	1.15
644.186	1.07
644.372	1.14
644.559	1.14
644.745	1.11
644.931	1.05
645.118	1.09
645.304	1.08
645.49	1.08
645.676	1.03
645.862	1.07
646.049	1.12
646.235	1.06
646.421	1.16
646.607	1.09
646.793	1.01
646.979	1.03
647.165	1.06
647.352	1.03
647.538	1.07
647.724	1.04
647.91	1.01
648.096	1.03
648.282	1.06
648.468	0.99
648.654	1.03
648.84	0.98
649.026	0.99
649.212	1
649.397	0.96
649.583	0.97
649.769	1
649.955	0.96
650.141	0.99
650.327	0.97
650.513	0.94
650.698	0.96
650.884	0.89
651.07	0.99
651.256	0.91
651.442	0.91
651.627	0.91
651.813	0.95
651.999	0.94
652.184	0.91
652.37	0.91
652.556	0.84
652.741	0.96
652.927	0.8
653.113	0.85
653.298	0.9
653.484	0.88
653.669	0.83
653.855	0.84
654.04	0.9
654.226	0.88
654.412	0.87
654.597	0.79
654.782	0.88
654.968	0.88
655.153	0.86
655.339	0.8
655.524	0.81
655.71	0.87
655.895	0.84
656.08	0.81
656.266	0.92
656.451	0.84
656.636	0.79
656.822	0.82
657.007	0.82
657.192	0.78
657.378	0.72
657.563	0.8
657.748	0.81
657.933	0.78
658.118	0.73
658.304	0.75
658.489	0.77
658.674	0.81
658.859	0.76
659.044	0.76
659.229	0.81
659.414	0.74
659.599	0.72
659.785	0.68
659.97	0.76
660.155	0.78
660.34	0.74
660.525	0.75
660.71	0.71
660.895	0.74
661.08	0.73
661.264	0.72
661.449	0.8
661.634	0.72
661.819	0.77
662.004	0.72
662.189	0.64
662.374	0.7
662.559	0.66
662.743	0.6
662.928	0.64
663.113	0.66
663.298	0.63
663.483	0.64
663.667	0.7
663.852	0.64
664.037	0.74
664.221	0.67
664.406	0.7
664.591	0.69
664.775	0.71
664.96	0.65
665.145	0.64
665.329	0.68
665.514	0.61
665.698	0.63
665.883	0.6
666.068	0.68
666.252	0.66
666.437	0.61
666.621	0.63
666.806	0.65
666.99	0.6
667.174	0.55
667.359	0.67
667.543	0.63
667.728	0.58
667.912	0.53
668.096	0.63
668.281	0.59
668.465	0.56
668.649	0.56
668.834	0.56
669.018	0.58
669.202	0.57
669.387	0.58
669.571	0.6
669.755	0.52
669.939	0.57
670.124	0.64
670.308	0.61
670.492	0.61
670.676	0.59
670.86	0.59
671.044	0.52
671.228	0.56
671.413	0.53
671.597	0.58
671.781	0.53
671.965	0.57
672.149	0.58
672.333	0.54
672.517	0.51
672.701	0.56
672.885	0.52
673.069	0.49
673.253	0.59
673.437	0.51
673.621	0.48
673.804	0.54
673.988	0.55
674.172	0.49
674.356	0.47
674.54	0.52
674.724	0.61
674.908	0.49
675.091	0.55
675.275	0.48
675.459	0.56
675.643	0.47
675.826	0.5
676.01	0.46
676.194	0.52
676.377	0.52
676.561	0.53
676.745	0.51
676.928	0.52
677.112	0.57
677.296	0.46
677.479	0.52
677.663	0.48
677.846	0.48
678.03	0.45
678.213	0.43
678.397	0.53
678.58	0.45
678.764	0.42
678.947	0.47
679.131	0.41
679.314	0.49
679.498	0.46
679.681	0.5
679.865	0.48
680.048	0.44
680.231	0.44
680.415	0.43
680.598	0.41
680.781	0.43
680.965	0.44
681.148	0.46
681.331	0.42
681.514	0.48
681.698	0.39
681.881	0.46
682.064	0.46
682.247	0.53
682.43	0.35
682.614	0.4
682.797	0.42
682.98	0.47
683.163	0.35
683.346	0.46
683.529	0.38
683.712	0.41
683.895	0.44
684.078	0.37
684.261	0.43
684.444	0.45
684.627	0.44
684.81	0.35
684.993	0.39
685.176	0.39
685.359	0.34
685.542	0.34
685.725	0.44
685.908	0.35
686.091	0.38
686.274	0.47
686.457	0.38
686.639	0.37
686.822	0.45
687.005	0.4
687.188	0.37
687.371	0.49
687.553	0.37
687.736	0.39
687.919	0.48
688.102	0.45
688.284	0.29
688.467	0.38
688.65	0.34
688.832	0.33
689.015	0.32
689.197	0.34
689.38	0.46
689.563	0.43
689.745	0.3
689.928	0.3
690.11	0.34
690.293	0.37
690.475	0.31
690.658	0.36
690.84	0.35
691.023	0.36
691.205	0.29
691.388	0.34
691.57	0.41
691.752	0.37
691.935	0.23
692.117	0.31
692.3	0.35
692.482	0.33
692.664	0.36
692.847	0.31
693.029	0.36
693.211	0.36
693.393	0.32
693.576	0.29
693.758	0.31
693.94	0.3
694.122	0.25
694.304	0.31
694.487	0.34
694.669	0.34
694.851	0.26
695.033	0.34
695.215	0.26
695.397	0.26
695.579	0.36
695.761	0.26
695.943	0.25
696.125	0.39
696.308	0.37
696.49	0.23
696.671	0.38
696.853	0.3
697.035	0.46
697.217	0.31
697.399	0.38
697.581	0.24
697.763	0.25
697.945	0.21
698.127	0.29
698.309	0.32
698.491	0.32
698.672	0.28
698.854	0.27
699.036	0.35
699.218	0.22
699.399	0.29
699.581	0.32
699.763	0.27
699.945	0.27
700.126	0.19
700.308	0.29
700.49	0.25
700.671	0.17
700.853	0.26
701.035	0.26
701.216	0.27
701.398	0.28
701.579	0.27
701.761	0.3
701.943	0.2
702.124	0.15
702.306	0.32
702.487	0.35
702.669	0.23
702.85	0.28
703.031	0.22
703.213	0.35
703.394	0.33
703.576	0.21
703.757	0.31
703.938	0.25
704.12	0.43
704.301	0.23
704.483	0.19
704.664	0.26
704.845	0.37
705.026	0.25
705.208	0.25
705.389	0.21
705.57	0.27
705.751	0.2
705.933	0.23
706.114	0.35
706.295	0.25
706.476	0.19
706.657	0.33
706.838	0.24
707.02	0.32
707.201	0.23
707.382	0.15
707.563	0.25
707.744	0.18
707.925	0.22
708.106	0.14
708.287	0.3
708.468	0.4
708.649	0.19
708.83	0.24
709.011	0.18
709.192	0.26
709.373	0.15
709.554	0.23
709.734	0.39
709.915	0.25
710.096	0.24
710.277	0.13
710.458	0.21
710.639	0.32
710.819	0.09
711	0.21
711.181	0.26
711.362	0.34
711.542	0.22
711.723	0.16
711.904	0.27
712.085	0.28
712.265	0.22
712.446	0.13
712.627	0.18
712.807	0.22
712.988	0.2
713.168	0.1
713.349	0.18
713.53	0.02
713.71	0.1
713.891	0.16
714.071	0.18
714.252	0.16
714.432	0.19
714.613	0.08
714.793	0.23
714.974	0.34
715.154	0.2
715.334	0.26
715.515	0.28
715.695	0.04
715.876	0.14
716.056	0.14
716.236	0.15
716.417	0.21
716.597	0.15
716.777	0.33
716.957	0.15
717.138	0.22
717.318	0.2
717.498	0.05
717.678	0.18
717.859	0.26
718.039	0.12
718.219	0.21
718.399	0.22
718.579	0.12
718.759	0.14
718.939	0.15
719.12	0.13
719.3	0.2
719.48	0.04
719.66	0.06
719.84	0.26
720.02	0.24
720.2	0.12
720.38	0.19
720.56	0.27
720.74	0.06
720.92	0.26
721.1	0.23
721.279	0.22
721.459	0.18
721.639	0.11
721.819	0.19
721.999	0.11
722.179	0.28
722.359	0.11
722.538	0.15
722.718	0.23
722.898	0.13
723.078	0.14
723.257	0.15
723.437	0.22
723.617	0.21
723.797	0.09
723.976	0.14
724.156	0.2
724.336	0.27
724.515	0.29
724.695	0.04
724.874	0.16
725.054	0.25
725.234	0.18
725.413	0.21
725.593	0.14
725.772	0.19
725.952	0.16
726.131	0.13
726.311	0.13
726.49	0.21
726.67	0.06
726.849	0.18
727.028	0.19
727.208	0.17
727.387	0.19
727.567	0.04
727.746	0.14
727.925	0.06
728.105	0.06
728.284	0.14
728.463	0.11
728.643	0.19
728.822	0.11
729.001	0.17
729.18	0.19
729.359	0.23
729.539	0.1
729.718	0.22
729.897	0.2
730.076	0.11
730.255	0.02
730.434	0.17
730.614	0.14
730.793	0.24
730.972	0.07
731.151	0.11
731.33	0.24
731.509	0.12
731.688	0.1
731.867	0.11
732.046	-0.03
732.225	0.33
732.404	0.13
732.583	0.09
732.762	0.13
732.941	0.15
733.12	0.12
733.298	0.12
733.477	0.24
733.656	0.08
733.835	0.13
734.014	0.2
734.193	0.12
734.371	0.26
734.55	0.19
734.729	-0.03
734.908	0.24
735.086	0.24
735.265	0.28
735.444	0.04
735.623	0.09
735.801	0.05
735.98	0.1
736.159	0.16
736.337	0.24
736.516	0.19
736.694	0.2
736.873	0.06
737.052	0.23
737.23	0.29
737.409	0.13
737.587	0.31
737.766	0.04
737.944	0.21
738.123	0.29
738.301	0.19
738.479	0.13
738.658	0.23
738.836	-0.02
739.015	0.16
739.193	0.16
739.371	-0.06
739.55	0.12
739.728	0.08
739.906	0.25
740.085	0.34
740.263	0.15
740.441	-0.04
740.62	0.33
740.798	0.32
740.976	0.12
741.154	0.18
741.332	0.31
741.511	0.08
741.689	0.19
741.867	0.23
742.045	0.14
742.223	0.07
742.401	-0.02
742.579	0.11
742.757	0.21
742.935	0.05
743.114	0.05
743.292	0.14
743.47	0.07
743.648	0.11
743.826	-0.09
744.004	0.14
744.181	0.29
744.359	0.14
744.537	0.11
744.715	0.09
744.893	0.16
745.071	0.21
745.249	0.1
745.427	0.07
745.605	0.23
745.782	0.19
745.96	0.28
746.138	0.11
746.316	0.23
746.493	0.08
746.671	0.16
746.849	0.26
747.027	0.26
747.204	0.1
747.382	0.21
747.56	0.04
747.737	0.2
747.915	0.04
748.093	0.16
748.27	0.1
748.448	0.11
748.625	0.02
748.803	0.03
748.98	0
749.158	0.18
749.335	0.13
749.513	0.11
749.69	0.02
749.868	0.03
750.045	0.2
750.223	0.13
750.4	-0.15
750.578	0.36
750.755	0.09
750.932	-0.09
751.11	0.27
751.287	0.15
751.464	0.26
751.642	0.09
751.819	0.16
751.996	0.11
752.173	0.07
752.351	-0.07
752.528	0.13
752.705	0.03
752.882	0.04
753.06	0.16
753.237	0.25
753.414	0.34
753.591	0.3
753.768	0.15
753.945	0.03
754.122	0.09
754.299	0.16
754.476	0.05
754.654	0.19
754.831	0.18
755.008	0.08
755.185	0.03
755.362	-0.01
755.539	0.11
755.716	0.06
755.892	0.06
756.069	0.04
756.246	0.05
756.423	0.1
756.6	0.28
756.777	0.14
756.954	0.16
757.131	0.1
757.307	0.02
757.484	0.04
757.661	0.08
757.838	0.15
758.015	0.05
758.191	0.19
758.368	0.16
758.545	0.26
758.721	0.21
758.898	0
759.075	0.15
759.251	0.2
759.428	0.23
759.605	-0.07
759.781	0.04
759.958	0.19
760.134	0.18
760.311	-0
760.488	0.24
760.664	0.29
760.841	0.02
761.017	-0.02
761.194	0.24
761.37	0.16
761.547	0.16
761.723	0.14
761.899	0.18
762.076	0.05
762.252	-0.02
762.429	0.05
762.605	0.17
762.781	0.02
762.958	0.2
763.134	0.02
763.31	0.03
763.486	0.1
763.663	-0.08
763.839	0.1
764.015	-0.12
764.191	-0.01
764.368	0.15
764.544	-0.08
764.72	0.13
764.896	0.14
765.072	0.16
765.248	-0.05
765.425	0.01
765.601	0.1
765.777	0.13
765.953	-0.11
766.129	0.04
766.305	0.02
766.481	0.18
766.657	0.08
766.833	0.38
767.009	-0.07
767.185	0.07
767.361	0.07
767.537	-0.02
767.713	0.16
767.889	-0.06
768.065	0.08
768.24	0.26
768.416	0.29
768.592	0.15
768.768	-0.03
768.944	0.07
769.12	0.05
769.295	0.16
769.471	-0.03
769.647	-0
769.823	0.19
769.998	0.09
770.174	0.04
770.35	0.47
770.525	0.33
770.701	0.14
770.877	0.12
771.052	0.06
771.228	0.21
771.403	0.25
771.579	0.16
771.755	0.41
771.93	0.08
772.106	-0.04
772.281	-0.28
772.457	0.05
772.632	0.11
772.808	-0.1
772.983	0.15
773.159	-0.05
773.334	0.39
773.509	0.24
773.685	-0.04
773.86	0.44
774.036	0.23
774.211	0.12
774.386	0.07
774.562	0.13
774.737	0.12
774.912	-0.06
775.087	0.23
775.263	0.02
775.438	0.14
775.613	0.1
775.788	0.06
775.964	0.13
776.139	0.48
776.314	-0.11
776.489	-0.06
776.664	0.19
776.839	0.04
777.014	0.17
777.19	0.21
777.365	0.33
777.54	0.41
777.715	-0.01
777.89	-0.01
778.065	-0.01
778.24	0.15
778.415	0.29
778.59	0.02
778.765	0.13
778.94	0.17
779.115	0.06
779.289	0.03
779.464	0.09
779.639	0.02
779.814	-0.22
779.989	-0.26
780.164	0.34
780.339	0.13
780.513	-0.05
780.688	-0.04
780.863	0.2
781.038	0.18
781.212	-0.05
781.387	0.32
781.562	0.37
781.737	-0.02
781.911	0.21
782.086	-0.1
782.261	0.11
782.435	0.33
782.61	0.08
782.784	0.1
782.959	0.45
783.134	0.07
783.308	0.06
783.483	0.06
783.657	0.45
783.832	0.41
784.006	-0.21
784.181	-0.02
784.355	0.29
784.53	-0.09
784.704	0.04
784.878	0.28
785.053	0.36
785.227	0.25
785.402	0.42
785.576	-0.25
785.75	-0
785.925	0.02
786.099	0.19
786.273	0.07
786.448	0.34
786.622	0.37
786.796	0.05
786.97	-0.01
787.145	0.49
787.319	-0.34
787.493	-0.04
787.667	-0.23
787.841	0.12
788.015	0.34
788.19	0.18
788.364	0.3
788.538	0.15
788.712	0.39
788.886	0.02
789.06	0.28
789.234	0.31
789.408	0.12
789.582	0.02
789.756	0.08
789.93	-0.11
790.104	-0.09
790.278	0.13
790.452	0.02
790.626	0.23
790.8	0.08
790.973	0.43
791.147	0.19
791.321	0.25
791.495	0.19
791.669	-0
791.843	0.24
792.016	0.23
792.19	0.27
792.364	-0.1
792.538	0.65
792.711	0.22
792.885	-0.02
793.059	-0.05
793.233	-0.35
793.406	0.33
793.58	0.09
793.754	0.36
793.927	0.15
794.101	0.36
794.274	-0.21
794.448	0.26
794.622	-0.09
794.795	0.55
794.969	0.01
795.142	0.25
795.316	-0.09
795.489	0.1
795.663	0.53
795.836	0.14
796.009	-0.04
796.183	0.61
796.356	0.17
796.53	-0.03
796.703	0.05
796.876	1
797.05	0.13
797.223	0.13
797.396	0.15
797.57	0.2
797.743	0.6
797.916	0.18
798.09	0.02
798.263	0.4
798.436	0.3
798.609	0.15
798.782	0.05
798.956	0.25
799.129	0.18
799.302	0.11
799.475	-0.16
799.648	0.16
799.821	-0.13
799.994	-0.02
800.167	-0.36
800.34	-0.11
800.514	0.2
800.687	-0.12
800.86	-0.17
801.033	-0.01
801.206	0.25
801.379	-0.32
801.551	0.53
801.724	0.3
801.897	0.67
802.07	0.21
802.243	-0.25
802.416	0.18
802.589	0.24
802.762	0.2
802.935	0.26
803.107	0.35
803.28	0.42
803.453	0.29
803.626	-0.12
803.798	0.14
803.971	-0.17
804.144	0.14
804.317	0.45
804.489	0.43
804.662	0.21
804.835	0.13
805.007	0.02
805.18	0.66
805.353	0.31
805.525	-0.3
805.698	-0.29
805.87	0.34
806.043	0.6
806.215	-0.06
806.388	0.13
806.56	0.27
806.733	0.64
806.905	0.3
807.078	0.02
807.25	-0.28
807.423	0.26
807.595	-0.04
807.768	0.05
807.94	0.51
808.112	0.38
808.285	0.42
808.457	0.01
808.629	-0.17
808.802	0.23
808.974	0.12
809.146	-0.12
809.318	-0.03
809.491	0.15
809.663	0.38
809.835	0.03
810.007	-0.08
810.18	0.44
810.352	-0.53
810.524	-0.42
810.696	0.42
810.868	0.44
811.04	0.42
811.212	-0.02
811.384	0.41
811.556	0.37
811.728	-0.04
811.901	0.94
812.073	0.06
812.245	0.62
812.417	0.31
812.589	-0.48
812.76	-0.07
812.932	0.64
813.104	0.27
813.276	0.07
813.448	0.67
813.62	0.21
813.792	0.43
813.964	0.27
814.136	0.22
814.307	-0.27
814.479	0.21
814.651	-0.06
814.823	1.07
814.995	0.06
815.166	0.26
815.338	0.02
815.51	-0.46
815.681	0.8
815.853	0.22
816.025	0.22
816.196	0.43
816.368	0.26
816.54	-0.54
816.711	-0.38
816.883	0.36
817.054	1.06
817.226	-0.58
817.398	0.25
817.569	-0.2
817.741	0.36
817.912	0.35
818.084	0.27
818.255	0.25
818.426	-0.13
818.598	0.31
818.769	-0.28
818.941	0.02
819.112	1.01
819.283	0.2
819.455	-0.08
819.626	0.28
819.798	0.24
819.969	-0.21
820.14	0.28
820.311	0.44
820.483	0.6
820.654	0.07
820.825	-0.07
820.996	-0.22
821.168	-0.29
821.339	0.5
821.51	-0.08
821.681	-0.23
821.852	0.37
822.023	0.24
822.195	-0.33
822.366	0.35
822.537	0.58
822.708	0.24
822.879	0.09
823.05	1.07
823.221	0.28
823.392	0.22
823.563	0.28
823.734	0.75
823.905	0.34
824.076	-0.13
824.247	-0.09
824.418	-0.03
824.589	0.54
824.759	0.14
824.93	-0.05
825.101	-0.35
825.272	0.95
825.443	0.71
825.614	0.18
825.784	-1.18
825.955	1.31
826.126	0.39
826.297	0.25
826.467	0.45
826.638	1.18
826.809	-0.75
826.98	0.83
827.15	0.97
827.321	0.09
827.492	0.46
827.662	0.03
827.833	1.24
828.003	0.64
828.174	-0.08
828.345	-0.68
828.515	1.17
828.686	0.25
828.856	-0.2
829.027	0.21
829.197	0.39
829.368	0.37
829.538	0.25
829.709	-0.21
829.879	-0.39
830.049	0.41
830.22	0.19
830.39	-0.26
830.56	0.56
830.731	-0.08
830.901	-0.43
831.072	0.64
831.242	0.03
831.412	-0.19
831.582	0.15
831.753	-0.33
831.923	0.56
832.093	0.06
832.263	-0.44
832.434	0.08
832.604	0.23
832.774	0.68
832.944	0.31
833.114	-0.01
833.284	0.69
833.454	0
833.624	-0.25
833.795	-0.46
833.965	0.18
834.135	0.71
834.305	-0.65
834.475	-0.72
834.645	-0.13
834.815	-0.54
834.985	-0.54
835.155	-0.31
835.325	0.57
835.494	0.51
835.664	-0.3
835.834	-0.92
836.004	0.69
836.174	0.43
836.344	-0.2
836.514	-0.41
836.684	0.14
836.853	0.14
837.023	0.87
837.193	-0.74
837.363	0.29
837.532	0.95
837.702	0.24
837.872	-0.5
838.041	0.71
838.211	1.93
838.381	0.05
838.55	0.26
838.72	2.3
838.89	1.17
839.059	-0.18
839.229	-0.52
839.398	1.98
839.568	0.4
839.738	0.27
839.907	1.05
840.077	0.74
840.246	-0.8
840.416	0.06
840.585	-0.59
840.755	2.05
840.924	0.64
841.093	-0.66
841.263	-0.54
841.432	0.29
841.602	0.45
841.771	-0.15
841.94	0.63
842.11	1.78
842.279	1.37
842.448	0.44
842.617	-0.46
842.787	0.98
842.956	-0.1
843.125	0.22
843.294	0.26
843.464	1.22
843.633	0.21
843.802	-1.37
843.971	0.37
844.14	1.43
844.309	1.37
844.479	-1.21
844.648	-0.39
844.817	-0.19
844.986	0.06
845.155	-0.23
845.324	0.85
845.493	-0.09
845.662	-1.21
845.831	0.34
846	0.72
846.169	-0.22
846.338	1.56
846.507	0.43
846.676	0.83
846.844	0.38
847.013	1.89
847.182	-0.21
847.351	-0.55
847.52	0.1
847.689	-0.52
847.858	0.28
848.026	0.62
848.195	-0.05
848.364	-0.26
848.533	0.17
848.701	0.31
848.87	0.38
849.039	1.54
849.207	1.03
849.376	1.48
849.545	0.3
849.713	-0.05
849.882	0.31
850.051	-0.08
850.219	0.82
850.388	1.03
850.556	0.38
850.725	-0.83
850.893	-0.07
851.062	-0.27
851.23	1.58
851.399	-0.87
851.567	-0.21
851.736	0.21
851.904	-0.92
852.073	0.2
852.241	1.27
852.41	0.59
852.578	1.01
852.746	-0.75
852.915	0.82
853.083	1.65
853.251	-0.45
853.42	0.71
853.588	0.81
853.756	1.54
853.924	-0.57
854.093	0.7
854.261	0.07
854.429	-1.28
854.597	1.03
854.765	-0.6
854.934	0.46
855.102	1.73
855.27	0.28
855.438	0.82
855.606	1.82
855.774	2.19
855.942	-1.33
856.11	-0.54
856.278	-0.12
856.446	0.38
856.614	-0.25
856.782	-1.15
856.95	1.23
857.118	0.87
857.286	1.33
857.454	-0.4
857.622	1.17
857.79	0.72
857.958	-0.57
858.126	-0.1
858.294	-2.27
858.462	0.37
858.629	-0
858.797	-1.28
858.965	0.96
859.133	0.74
859.301	-0.84
859.468	0.95
859.636	-0.91
859.804	0.89
859.971	0.98
860.139	-0.43
860.307	1.18
860.474	0.32
860.642	-0.3
860.81	-0
860.977	-0.41
861.145	1.45
861.313	0.02
861.48	-0.21
861.648	1.41
861.815	0.11
861.983	-2.65
862.15	0.56
862.318	0.65
862.485	1.67
862.653	-1.05
862.82	-1.07
862.988	2.83
863.155	1.1
863.322	-1.41
863.49	-1.04
863.657	-0.56
863.824	3.42
863.992	0.76
864.159	0.07
864.326	2.58
864.494	-0.04
864.661	2.55
864.828	-1.02
864.996	2.74
865.163	1.38
865.33	-0.8
865.497	-2.76
865.664	-0.43
865.832	-1.46
865.999	0.29
866.166	-0
866.333	-0.69
866.5	-1.62
866.667	0.18
866.834	-0.36
867.001	1.1
867.168	-1.01
867.335	0.87
867.502	-0.45
867.669	-0.36
867.836	2.01
868.003	-0.21
868.17	0.8
868.337	-0.54
868.504	3.43
868.671	-1.26
868.838	-0.72
869.005	0.26
869.172	1.41
869.339	0.09
869.505	-0.3
869.672	0.04
869.839	2.33
870.006	0.96
870.173	-1.99
870.339	-0.1
870.506	3.25
870.673	-1.71
870.84	2.14
871.006	1.25
871.173	-1.18
871.34	-0.13
871.506	-0.02
871.673	1.46
871.839	-1.86
872.006	1.54
872.173	-0.3
872.339	0.31
872.506	2.03
872.672	1.34
872.839	-0.77
873.005	0.71
873.172	2
873.338	0.93
873.505	-0.2
873.671	-0.17
873.838	1.37
874.004	-2.08
874.171	-0.46
874.337	1.54
874.503	1.68
874.67	1.25
874.836	0.51
875.002	2.52
875.169	3.54
875.335	0.56
875.501	-0.88
875.668	2.62
875.834	0.74
876	-1.05
876.166	1.77
876.332	1.59
876.499	3.08
876.665	-0.26
876.831	1.11
876.997	4.1
877.163	2
877.329	-0.59
877.495	0.53
877.662	-0.26
877.828	0.02
877.994	0.09
878.16	-2.52
878.326	0.07
878.492	0.7
878.658	-1.56
878.824	1.09
878.99	1.48
879.156	-0.34
879.322	3.19
879.487	-1.8
879.653	0.39
879.819	1.3
879.985	1.09
880.151	0.41
880.317	0.73
880.483	0.11
880.648	0.87
880.814	-2.15
880.98	0.99
881.146	-1.3
881.312	-1.6
881.477	-1.37
881.643	0.97
881.809	2.44
881.974	0.43
882.14	-2.01
882.306	-0.19
882.471	3.41
882.637	0.56
882.803	0.07
882.968	3.03
883.134	4.41
883.299	0.54
883.465	1.7
883.63	2.14
883.796	2.22
883.961	1.56
884.127	1.5
884.292	-4.25
884.458	-1.81
884.623	-1.81
