Data from Apollo_Calib_20240827__AbsoluteIrradiance__25__23-34-01-017.txt Node

Date: Tue Aug 27 23:34:01 BST 2024
User: biology
Spectrometer: FLMT08252
Trigger mode: 0
Integration Time (sec): 5.000000E-1
Scans to average: 5
Electric dark correction enabled: true
Nonlinearity correction enabled: false
Boxcar width: 0
XAxis mode: Wavelengths
Number of Pixels in Spectrum: 3648
>>>>>Begin Spectral Data<<<<<
179.588	-0
179.809	-0
180.03	-0
180.251	-0
180.473	-0
180.694	0
180.915	0
181.136	-0
181.357	0
181.578	0
181.799	0
182.02	-0
182.241	-0
182.462	-0
182.683	0
182.904	-0
183.125	-0
183.346	0
183.567	0
183.788	0
184.009	0
184.23	0
184.451	0
184.672	0
184.892	0
185.113	0
185.334	0
185.555	0
185.776	0
185.996	0
186.217	0
186.438	0
186.659	0
186.879	0
187.1	0
187.321	0
187.541	0
187.762	0
187.983	0
188.203	0
188.424	0
188.644	0
188.865	0
189.086	0
189.306	0
189.527	0
189.747	0
189.968	0
190.188	0
190.409	0
190.629	0
190.849	0
191.07	0
191.29	0
191.511	0
191.731	0
191.951	0
192.172	0
192.392	0
192.612	0
192.833	0
193.053	0
193.273	0
193.493	0
193.714	0
193.934	0
194.154	0
194.374	0
194.594	0
194.815	0
195.035	0
195.255	0
195.475	0
195.695	0
195.915	0
196.135	0
196.355	0
196.575	0
196.795	0
197.015	0
197.235	0
197.455	0
197.675	0
197.895	0
198.115	0
198.335	0
198.555	0
198.775	0
198.995	0
199.214	0
199.434	0
199.654	0
199.874	0
200.094	3.93
200.313	2.52
200.533	2.8
200.753	1.98
200.973	3.27
201.192	3.28
201.412	1.69
201.632	2.27
201.851	3.71
202.071	1.72
202.291	1.88
202.51	1.74
202.73	3.22
202.95	2.13
203.169	1.68
203.389	2.11
203.608	2.59
203.828	1.95
204.047	2.23
204.267	2.42
204.486	2.4
204.706	2.02
204.925	1.65
205.145	1.57
205.364	2.33
205.583	2.58
205.803	1.48
206.022	1.35
206.242	1.69
206.461	1.58
206.68	1.28
206.9	1.79
207.119	2.15
207.338	1.85
207.557	1.44
207.777	1.28
207.996	1.58
208.215	2.18
208.434	1.28
208.654	0.81
208.873	1.47
209.092	2
209.311	1.43
209.53	1.23
209.749	1.08
209.968	1.05
210.187	1.29
210.407	0.47
210.626	1.05
210.845	1.7
211.064	1.28
211.283	0.81
211.502	1.89
211.721	1
211.94	0.83
212.159	1.38
212.377	1.32
212.596	1.46
212.815	1.05
213.034	1.19
213.253	1.23
213.472	1.37
213.691	1.03
213.91	0.65
214.128	1.15
214.347	1.56
214.566	0.78
214.785	0.77
215.003	1.16
215.222	1.12
215.441	1.05
215.66	0.56
215.878	1.06
216.097	1.23
216.316	0.65
216.534	0.96
216.753	1.08
216.972	0.62
217.19	0.8
217.409	0.86
217.627	0.79
217.846	0.81
218.064	0.93
218.283	0.67
218.501	1.39
218.72	1.11
218.938	0.65
219.157	0.71
219.375	1.03
219.594	1.1
219.812	0.66
220.031	0.71
220.249	1.17
220.467	1.23
220.686	0.79
220.904	0.62
221.122	0.77
221.341	1.24
221.559	0.73
221.777	0.63
221.995	0.85
222.214	0.86
222.432	0.65
222.65	0.9
222.868	0.83
223.086	0.87
223.305	0.83
223.523	0.83
223.741	0.93
223.959	0.5
224.177	0.42
224.395	0.59
224.613	0.88
224.831	0.99
225.049	0.67
225.267	0.61
225.485	0.8
225.703	0.65
225.921	0.66
226.139	0.59
226.357	0.7
226.575	0.83
226.793	0.58
227.011	1.19
227.229	0.67
227.447	0.84
227.665	0.65
227.883	0.4
228.1	0.69
228.318	0.64
228.536	0.36
228.754	0.53
228.972	0.7
229.189	0.81
229.407	0.69
229.625	0.58
229.843	0.89
230.06	0.85
230.278	0.57
230.496	0.65
230.713	0.77
230.931	0.69
231.149	0.43
231.366	0.4
231.584	0.65
231.801	0.87
232.019	0.57
232.236	0.51
232.454	0.56
232.671	0.76
232.889	0.51
233.106	0.44
233.324	0.56
233.541	0.54
233.759	0.56
233.976	0.42
234.194	0.64
234.411	0.6
234.628	0.43
234.846	0.54
235.063	0.65
235.28	0.48
235.498	0.55
235.715	0.51
235.932	0.66
236.149	0.58
236.367	0.47
236.584	0.61
236.801	0.47
237.018	0.65
237.236	0.56
237.453	0.43
237.67	0.73
237.887	0.47
238.104	0.46
238.321	0.35
238.538	0.44
238.755	0.56
238.973	0.33
239.19	0.49
239.407	0.66
239.624	0.53
239.841	0.39
240.058	0.43
240.275	0.59
240.492	0.51
240.709	0.45
240.925	0.37
241.142	0.42
241.359	0.42
241.576	0.37
241.793	0.37
242.01	0.46
242.227	0.68
242.444	0.5
242.66	0.63
242.877	0.49
243.094	0.53
243.311	0.45
243.527	0.49
243.744	0.43
243.961	0.61
244.178	0.45
244.394	0.55
244.611	0.59
244.828	0.67
245.044	0.41
245.261	0.44
245.477	0.5
245.694	0.6
245.911	0.39
246.127	0.42
246.344	0.67
246.56	0.57
246.777	0.36
246.993	0.49
247.21	0.53
247.426	0.57
247.643	0.33
247.859	0.32
248.076	0.42
248.292	0.67
248.508	0.35
248.725	0.4
248.941	0.51
249.157	0.47
249.374	0.46
249.59	0.41
249.806	0.43
250.023	0.51
250.239	0.32
250.455	0.38
250.671	0.48
250.888	0.45
251.104	0.52
251.32	0.37
251.536	0.37
251.752	0.44
251.969	0.52
252.185	0.52
252.401	0.61
252.617	0.43
252.833	0.46
253.049	0.4
253.265	0.4
253.481	0.45
253.697	0.43
253.913	0.36
254.129	0.55
254.345	0.43
254.561	0.42
254.777	0.43
254.993	0.44
255.209	0.46
255.425	0.35
255.641	0.35
255.857	0.54
256.073	0.42
256.288	0.39
256.504	0.37
256.72	0.41
256.936	0.52
257.152	0.38
257.367	0.37
257.583	0.44
257.799	0.47
258.015	0.37
258.23	0.36
258.446	0.55
258.662	0.35
258.877	0.32
259.093	0.32
259.309	0.5
259.524	0.45
259.74	0.33
259.955	0.24
260.171	0.41
260.387	0.35
260.602	0.44
260.818	0.46
261.033	0.27
261.249	0.37
261.464	0.33
261.68	0.35
261.895	0.45
262.11	0.44
262.326	0.41
262.541	0.27
262.757	0.47
262.972	0.42
263.187	0.41
263.403	0.35
263.618	0.5
263.833	0.35
264.049	0.3
264.264	0.43
264.479	0.44
264.694	0.46
264.91	0.33
265.125	0.34
265.34	0.48
265.555	0.53
265.77	0.39
265.986	0.34
266.201	0.36
266.416	0.43
266.631	0.37
266.846	0.35
267.061	0.4
267.276	0.37
267.491	0.22
267.706	0.36
267.921	0.4
268.136	0.4
268.351	0.37
268.566	0.27
268.781	0.44
268.996	0.38
269.211	0.32
269.426	0.31
269.641	0.36
269.856	0.34
270.071	0.38
270.285	0.21
270.5	0.4
270.715	0.37
270.93	0.29
271.145	0.41
271.359	0.44
271.574	0.31
271.789	0.38
272.004	0.37
272.218	0.3
272.433	0.43
272.648	0.27
272.862	0.32
273.077	0.36
273.292	0.35
273.506	0.31
273.721	0.35
273.936	0.34
274.15	0.37
274.365	0.37
274.579	0.39
274.794	0.38
275.008	0.39
275.223	0.24
275.437	0.32
275.652	0.48
275.866	0.4
276.081	0.27
276.295	0.43
276.509	0.39
276.724	0.29
276.938	0.32
277.153	0.35
277.367	0.38
277.581	0.27
277.796	0.34
278.01	0.32
278.224	0.41
278.438	0.46
278.653	0.24
278.867	0.29
279.081	0.21
279.295	0.3
279.51	0.3
279.724	0.24
279.938	0.35
280.152	0.33
280.366	0.25
280.58	0.33
280.794	0.45
281.008	0.34
281.222	0.39
281.437	0.43
281.651	0.32
281.865	0.43
282.079	0.21
282.293	0.21
282.507	0.31
282.721	0.33
282.935	0.31
283.148	0.24
283.362	0.28
283.576	0.26
283.79	0.33
284.004	0.25
284.218	0.4
284.432	0.26
284.646	0.29
284.859	0.28
285.073	0.33
285.287	0.33
285.501	0.29
285.714	0.28
285.928	0.35
286.142	0.27
286.356	0.31
286.569	0.28
286.783	0.38
286.997	0.33
287.21	0.37
287.424	0.32
287.637	0.25
287.851	0.33
288.065	0.36
288.278	0.3
288.492	0.32
288.705	0.24
288.919	0.36
289.132	0.22
289.346	0.35
289.559	0.24
289.773	0.3
289.986	0.28
290.2	0.27
290.413	0.34
290.626	0.27
290.84	0.28
291.053	0.27
291.267	0.32
291.48	0.25
291.693	0.3
291.906	0.26
292.12	0.3
292.333	0.25
292.546	0.27
292.76	0.37
292.973	0.33
293.186	0.3
293.399	0.27
293.612	0.32
293.826	0.27
294.039	0.26
294.252	0.33
294.465	0.34
294.678	0.35
294.891	0.28
295.104	0.22
295.317	0.23
295.53	0.29
295.743	0.31
295.956	0.27
296.169	0.33
296.382	0.29
296.595	0.27
296.808	0.25
297.021	0.32
297.234	0.26
297.447	0.29
297.66	0.28
297.873	0.33
298.086	0.29
298.299	0.23
298.511	0.22
298.724	0.3
298.937	0.2
299.15	0.23
299.363	0.21
299.575	0.31
299.788	0.3
300.001	0.32
300.213	0.28
300.426	0.28
300.639	0.24
300.852	0.23
301.064	0.25
301.277	0.33
301.489	0.23
301.702	0.29
301.915	0.26
302.127	0.27
302.34	0.31
302.552	0.31
302.765	0.23
302.977	0.3
303.19	0.24
303.402	0.23
303.615	0.22
303.827	0.28
304.04	0.25
304.252	0.3
304.464	0.28
304.677	0.38
304.889	0.28
305.102	0.23
305.314	0.22
305.526	0.31
305.739	0.32
305.951	0.26
306.163	0.23
306.375	0.32
306.588	0.21
306.8	0.26
307.012	0.2
307.224	0.25
307.436	0.33
307.649	0.2
307.861	0.27
308.073	0.33
308.285	0.24
308.497	0.18
308.709	0.26
308.921	0.33
309.133	0.31
309.346	0.28
309.558	0.23
309.77	0.3
309.982	0.35
310.194	0.3
310.406	0.25
310.617	0.37
310.829	0.26
311.041	0.3
311.253	0.22
311.465	0.28
311.677	0.25
311.889	0.28
312.101	0.23
312.313	0.33
312.524	0.29
312.736	0.21
312.948	0.29
313.16	0.32
313.372	0.29
313.583	0.29
313.795	0.28
314.007	0.2
314.218	0.28
314.43	0.28
314.642	0.29
314.853	0.23
315.065	0.29
315.277	0.24
315.488	0.25
315.7	0.29
315.912	0.29
316.123	0.22
316.335	0.27
316.546	0.39
316.758	0.24
316.969	0.28
317.181	0.26
317.392	0.27
317.604	0.27
317.815	0.2
318.026	0.23
318.238	0.25
318.449	0.3
318.661	0.17
318.872	0.21
319.083	0.21
319.295	0.33
319.506	0.22
319.717	0.28
319.929	0.28
320.14	0.25
320.351	0.26
320.562	0.24
320.774	0.34
320.985	0.27
321.196	0.23
321.407	0.17
321.618	0.32
321.829	0.3
322.041	0.29
322.252	0.26
322.463	0.26
322.674	0.3
322.885	0.23
323.096	0.25
323.307	0.27
323.518	0.3
323.729	0.21
323.94	0.27
324.151	0.21
324.362	0.24
324.573	0.24
324.784	0.27
324.995	0.3
325.206	0.3
325.417	0.25
325.628	0.21
325.838	0.26
326.049	0.25
326.26	0.28
326.471	0.25
326.682	0.29
326.892	0.29
327.103	0.21
327.314	0.22
327.525	0.32
327.735	0.29
327.946	0.27
328.157	0.2
328.368	0.31
328.578	0.21
328.789	0.33
328.999	0.32
329.21	0.22
329.421	0.27
329.631	0.27
329.842	0.19
330.052	0.3
330.263	0.31
330.473	0.31
330.684	0.23
330.894	0.25
331.105	0.3
331.315	0.21
331.526	0.19
331.736	0.33
331.947	0.32
332.157	0.29
332.367	0.23
332.578	0.32
332.788	0.34
332.999	0.28
333.209	0.27
333.419	0.19
333.629	0.24
333.84	0.28
334.05	0.28
334.26	0.37
334.47	0.31
334.681	0.31
334.891	0.23
335.101	0.25
335.311	0.38
335.521	0.26
335.732	0.23
335.942	0.33
336.152	0.29
336.362	0.27
336.572	0.25
336.782	0.25
336.992	0.26
337.202	0.22
337.412	0.26
337.622	0.24
337.832	0.27
338.042	0.25
338.252	0.21
338.462	0.27
338.672	0.31
338.882	0.26
339.092	0.27
339.302	0.32
339.511	0.31
339.721	0.24
339.931	0.22
340.141	0.27
340.351	0.31
340.561	0.26
340.77	0.29
340.98	0.25
341.19	0.28
341.4	0.24
341.609	0.22
341.819	0.24
342.029	0.22
342.238	0.25
342.448	0.22
342.658	0.29
342.867	0.26
343.077	0.27
343.286	0.28
343.496	0.3
343.706	0.36
343.915	0.19
344.125	0.28
344.334	0.28
344.544	0.25
344.753	0.27
344.963	0.24
345.172	0.24
345.381	0.21
345.591	0.24
345.8	0.22
346.01	0.3
346.219	0.29
346.428	0.16
346.638	0.24
346.847	0.25
347.056	0.32
347.266	0.23
347.475	0.24
347.684	0.26
347.893	0.3
348.103	0.26
348.312	0.23
348.521	0.24
348.73	0.26
348.94	0.27
349.149	0.21
349.358	0.22
349.567	0.22
349.776	0.19
349.985	0.23
350.194	0.31
350.403	0.29
350.612	0.19
350.821	0.24
351.03	0.24
351.239	0.23
351.448	0.23
351.657	0.22
351.866	0.29
352.075	0.29
352.284	0.28
352.493	0.2
352.702	0.29
352.911	0.3
353.12	0.3
353.329	0.22
353.538	0.28
353.746	0.23
353.955	0.22
354.164	0.29
354.373	0.25
354.582	0.32
354.79	0.23
354.999	0.3
355.208	0.26
355.416	0.26
355.625	0.22
355.834	0.24
356.042	0.23
356.251	0.21
356.46	0.21
356.668	0.28
356.877	0.33
357.085	0.29
357.294	0.24
357.503	0.29
357.711	0.28
357.92	0.33
358.128	0.25
358.337	0.25
358.545	0.27
358.754	0.25
358.962	0.24
359.17	0.28
359.379	0.24
359.587	0.26
359.796	0.26
360.004	0.3
360.212	0.28
360.421	0.3
360.629	0.26
360.837	0.23
361.046	0.26
361.254	0.39
361.462	0.23
361.67	0.26
361.879	0.26
362.087	0.31
362.295	0.28
362.503	0.24
362.711	0.22
362.92	0.24
363.128	0.22
363.336	0.21
363.544	0.16
363.752	0.26
363.96	0.21
364.168	0.2
364.376	0.22
364.584	0.29
364.792	0.32
365	0.28
365.208	0.24
365.416	0.27
365.624	0.32
365.832	0.19
366.04	0.33
366.248	0.25
366.456	0.28
366.664	0.29
366.872	0.25
367.079	0.23
367.287	0.22
367.495	0.24
367.703	0.27
367.911	0.21
368.118	0.25
368.326	0.23
368.534	0.23
368.742	0.28
368.949	0.19
369.157	0.24
369.365	0.25
369.572	0.22
369.78	0.2
369.988	0.26
370.195	0.3
370.403	0.29
370.61	0.25
370.818	0.27
371.026	0.33
371.233	0.24
371.441	0.28
371.648	0.27
371.856	0.23
372.063	0.26
372.271	0.25
372.478	0.25
372.685	0.24
372.893	0.3
373.1	0.28
373.308	0.21
373.515	0.35
373.722	0.29
373.93	0.2
374.137	0.31
374.344	0.31
374.552	0.31
374.759	0.31
374.966	0.22
375.173	0.25
375.381	0.35
375.588	0.24
375.795	0.2
376.002	0.21
376.209	0.23
376.417	0.28
376.624	0.32
376.831	0.27
377.038	0.24
377.245	0.17
377.452	0.22
377.659	0.32
377.866	0.25
378.073	0.28
378.28	0.24
378.487	0.32
378.694	0.28
378.901	0.27
379.108	0.26
379.315	0.29
379.522	0.35
379.729	0.26
379.936	0.26
380.143	0.27
380.35	0.28
380.557	0.25
380.763	0.3
380.97	0.25
381.177	0.24
381.384	0.32
381.591	0.27
381.797	0.27
382.004	0.32
382.211	0.3
382.418	0.26
382.624	0.28
382.831	0.31
383.038	0.28
383.244	0.29
383.451	0.3
383.658	0.33
383.864	0.31
384.071	0.27
384.277	0.29
384.484	0.32
384.69	0.34
384.897	0.24
385.103	0.25
385.31	0.25
385.516	0.24
385.723	0.28
385.929	0.26
386.136	0.2
386.342	0.3
386.549	0.28
386.755	0.34
386.961	0.35
387.168	0.3
387.374	0.28
387.58	0.29
387.787	0.31
387.993	0.31
388.199	0.27
388.406	0.26
388.612	0.28
388.818	0.27
389.024	0.29
389.231	0.31
389.437	0.38
389.643	0.36
389.849	0.28
390.055	0.32
390.261	0.3
390.467	0.29
390.674	0.28
390.88	0.31
391.086	0.34
391.292	0.27
391.498	0.33
391.704	0.34
391.91	0.27
392.116	0.28
392.322	0.21
392.528	0.33
392.734	0.26
392.94	0.3
393.146	0.29
393.352	0.34
393.557	0.28
393.763	0.31
393.969	0.32
394.175	0.3
394.381	0.33
394.587	0.29
394.792	0.29
394.998	0.34
395.204	0.38
395.41	0.32
395.615	0.34
395.821	0.35
396.027	0.34
396.233	0.27
396.438	0.32
396.644	0.38
396.85	0.36
397.055	0.31
397.261	0.37
397.466	0.35
397.672	0.37
397.878	0.38
398.083	0.31
398.289	0.33
398.494	0.41
398.7	0.41
398.905	0.29
399.111	0.45
399.316	0.31
399.522	0.37
399.727	0.31
399.932	0.34
400.138	0.35
400.343	0.37
400.549	0.31
400.754	0.34
400.959	0.37
401.165	0.37
401.37	0.38
401.575	0.48
401.78	0.33
401.986	0.37
402.191	0.35
402.396	0.42
402.601	0.45
402.807	0.4
403.012	0.39
403.217	0.43
403.422	0.39
403.627	0.43
403.832	0.37
404.037	0.48
404.243	0.45
404.448	0.46
404.653	0.46
404.858	0.46
405.063	0.45
405.268	0.44
405.473	0.37
405.678	0.44
405.883	0.54
406.088	0.5
406.293	0.34
406.498	0.43
406.703	0.52
406.907	0.49
407.112	0.45
407.317	0.51
407.522	0.57
407.727	0.47
407.932	0.57
408.136	0.66
408.341	0.55
408.546	0.63
408.751	0.54
408.956	0.61
409.16	0.73
409.365	0.64
409.57	0.59
409.774	0.59
409.979	0.67
410.184	0.71
410.388	0.66
410.593	0.78
410.798	0.72
411.002	0.74
411.207	0.77
411.411	0.84
411.616	0.74
411.82	0.87
412.025	0.83
412.229	0.88
412.434	0.92
412.638	0.91
412.843	0.87
413.047	0.95
413.252	0.96
413.456	1.01
413.66	1.06
413.865	1.04
414.069	1.17
414.273	1.14
414.478	1.15
414.682	1.17
414.886	1.17
415.091	1.18
415.295	1.24
415.499	1.4
415.703	1.37
415.908	1.44
416.112	1.37
416.316	1.57
416.52	1.52
416.724	1.52
416.929	1.59
417.133	1.82
417.337	1.72
417.541	1.8
417.745	1.78
417.949	1.94
418.153	1.99
418.357	2.01
418.561	2.21
418.765	2.16
418.969	2.31
419.173	2.41
419.377	2.4
419.581	2.62
419.785	2.59
419.989	2.61
420.193	2.78
420.397	2.87
420.601	3.02
420.804	3.09
421.008	3.07
421.212	3.17
421.416	3.26
421.62	3.22
421.823	3.32
422.027	3.49
422.231	3.38
422.435	3.49
422.638	3.48
422.842	3.66
423.046	3.67
423.249	3.96
423.453	3.89
423.657	3.99
423.86	4.09
424.064	4.2
424.268	4.4
424.471	4.46
424.675	4.72
424.878	4.72
425.082	4.83
425.285	5.17
425.489	5.07
425.692	5.21
425.896	5.22
426.099	5.45
426.303	5.62
426.506	5.76
426.71	5.92
426.913	6.09
427.116	6.2
427.32	6.24
427.523	6.46
427.726	6.61
427.93	6.68
428.133	6.96
428.336	7.2
428.54	7.29
428.743	7.63
428.946	7.77
429.149	7.78
429.353	7.89
429.556	8
429.759	8.02
429.962	8.13
430.165	8.27
430.368	7.94
430.571	7.99
430.775	8.08
430.978	8.04
431.181	8.1
431.384	8.23
431.587	8.3
431.79	8.7
431.993	8.56
432.196	8.9
432.399	9.38
432.602	9.37
432.805	9.42
433.008	10.04
433.211	9.93
433.414	10.25
433.616	10.17
433.819	10.2
434.022	10.43
434.225	10.62
434.428	10.61
434.631	11.03
434.833	10.75
435.036	11.03
435.239	11.23
435.442	11.34
435.645	11.47
435.847	11.51
436.05	11.92
436.253	12.1
436.455	12.04
436.658	11.99
436.861	12.32
437.063	12.35
437.266	12.4
437.468	12.74
437.671	13
437.874	13.16
438.076	12.96
438.279	13.35
438.481	13.41
438.684	14.21
438.886	13.76
439.089	14.05
439.291	14.01
439.494	14.51
439.696	14.61
439.899	15.23
440.101	15.51
440.303	15.76
440.506	16.52
440.708	16.22
440.91	16.39
441.113	16.66
441.315	16.92
441.517	16.63
441.72	17.1
441.922	16.82
442.124	16.83
442.326	17.14
442.529	17.2
442.731	17.4
442.933	17.73
443.135	17.34
443.337	17.47
443.539	17.95
443.742	17.66
443.944	18.25
444.146	18
444.348	18.05
444.55	17.91
444.752	18.1
444.954	18.13
445.156	18.08
445.358	18.41
445.56	18.65
445.762	18.44
445.964	18.77
446.166	18.55
446.368	18.73
446.57	18.59
446.772	18.1
446.974	17.98
447.175	18.25
447.377	17.93
447.579	18.47
447.781	18.15
447.983	17.96
448.184	17.4
448.386	17.74
448.588	17.45
448.79	17.19
448.991	17.56
449.193	17.64
449.395	16.92
449.597	16.58
449.798	16.37
450	15.9
450.202	15.86
450.403	16.02
450.605	15.86
450.806	15.56
451.008	15.36
451.21	15.17
451.411	14.71
451.613	13.87
451.814	14.2
452.016	14.15
452.217	13.34
452.419	13.49
452.62	13.1
452.821	12.86
453.023	12.72
453.224	12.36
453.426	12.03
453.627	11.18
453.828	11.36
454.03	11.41
454.231	11.51
454.432	11.25
454.634	10.88
454.835	10.6
455.036	10.49
455.238	10.09
455.439	9.89
455.64	9.5
455.841	9.54
456.042	9.51
456.244	9.26
456.445	9.07
456.646	8.66
456.847	8.63
457.048	8.56
457.249	8.67
457.45	8.27
457.651	7.89
457.852	7.73
458.054	7.34
458.255	7.37
458.456	7.38
458.657	7.19
458.858	6.82
459.058	6.76
459.259	6.77
459.46	6.45
459.661	6.5
459.862	6.47
460.063	6.39
460.264	6.4
460.465	6.08
460.666	6.07
460.866	5.82
461.067	5.6
461.268	5.66
461.469	5.58
461.67	5.45
461.87	5.24
462.071	5.34
462.272	5.2
462.473	5.1
462.673	5.23
462.874	5.13
463.075	5.15
463.275	5.21
463.476	5.16
463.676	5.11
463.877	5.01
464.078	4.95
464.278	5.07
464.479	4.81
464.679	4.79
464.88	4.75
465.08	4.64
465.281	4.55
465.481	4.36
465.682	4.09
465.882	4.22
466.083	4.1
466.283	4.11
466.483	3.94
466.684	3.71
466.884	3.71
467.085	3.72
467.285	3.77
467.485	3.6
467.686	3.61
467.886	3.43
468.086	3.44
468.286	3.4
468.487	3.53
468.687	3.31
468.887	3.3
469.087	3.39
469.287	3.27
469.488	3.08
469.688	3.18
469.888	3.19
470.088	3.16
470.288	3.1
470.488	3.07
470.688	2.9
470.888	2.89
471.088	2.72
471.288	2.87
471.488	2.85
471.688	2.74
471.888	2.68
472.088	2.82
472.288	2.76
472.488	2.6
472.688	2.53
472.888	2.66
473.088	2.65
473.288	2.5
473.488	2.47
473.688	2.64
473.887	2.53
474.087	2.46
474.287	2.46
474.487	2.42
474.687	2.45
474.886	2.39
475.086	2.31
475.286	2.35
475.486	2.32
475.685	2.25
475.885	2.31
476.085	2.3
476.284	2.28
476.484	2.24
476.684	2.22
476.883	2.29
477.083	2.19
477.282	2.13
477.482	2.15
477.681	2.18
477.881	2.04
478.08	2.11
478.28	2.05
478.479	2.14
478.679	2.15
478.878	2.07
479.078	2.04
479.277	2.1
479.477	2.05
479.676	2.04
479.875	2.01
480.075	1.99
480.274	2.06
480.473	2.07
480.673	2.02
480.872	2.13
481.071	2.06
481.271	2.03
481.47	2.02
481.669	2.06
481.868	1.99
482.067	2.02
482.267	1.97
482.466	1.94
482.665	1.97
482.864	1.94
483.063	1.97
483.262	2.01
483.461	2.06
483.661	2.05
483.86	1.98
484.059	2.04
484.258	2.04
484.457	2.07
484.656	2.05
484.855	2.08
485.054	1.96
485.253	1.96
485.452	1.95
485.651	2.06
485.849	2.04
486.048	1.99
486.247	2.01
486.446	2.08
486.645	2.05
486.844	2.08
487.043	2.06
487.241	2.12
487.44	2.06
487.639	2.15
487.838	2.12
488.037	2.1
488.235	2.18
488.434	2.17
488.633	2.05
488.831	2.2
489.03	2.22
489.229	2.22
489.427	2.22
489.626	2.22
489.825	2.28
490.023	2.29
490.222	2.28
490.42	2.26
490.619	2.34
490.817	2.39
491.016	2.33
491.214	2.42
491.413	2.43
491.611	2.4
491.81	2.45
492.008	2.46
492.207	2.54
492.405	2.54
492.604	2.46
492.802	2.53
493	2.61
493.199	2.62
493.397	2.62
493.595	2.69
493.794	2.68
493.992	2.8
494.19	2.76
494.388	2.8
494.587	2.72
494.785	2.81
494.983	2.7
495.181	2.83
495.379	2.91
495.578	2.96
495.776	2.94
495.974	2.92
496.172	2.95
496.37	3.09
496.568	3.12
496.766	3.13
496.964	3.21
497.162	3.18
497.36	3.2
497.558	3.26
497.756	3.3
497.954	3.27
498.152	3.33
498.35	3.44
498.548	3.34
498.746	3.38
498.944	3.38
499.142	3.46
499.34	3.44
499.538	3.63
499.736	3.5
499.933	3.62
500.131	3.57
500.329	3.76
500.527	3.72
500.725	3.81
500.922	3.89
501.12	3.83
501.318	3.96
501.516	3.92
501.713	4
501.911	3.94
502.109	3.91
502.306	4.05
502.504	3.96
502.701	4.06
502.899	4.18
503.097	4.32
503.294	4.17
503.492	4.31
503.689	4.36
503.887	4.34
504.084	4.46
504.282	4.41
504.479	4.39
504.677	4.54
504.874	4.54
505.072	4.4
505.269	4.66
505.466	4.64
505.664	4.74
505.861	4.61
506.059	4.76
506.256	4.82
506.453	4.78
506.651	4.99
506.848	4.96
507.045	4.95
507.242	4.95
507.44	4.98
507.637	5.08
507.834	5
508.031	5.16
508.229	5.09
508.426	5.08
508.623	5.26
508.82	5.28
509.017	5.24
509.214	5.24
509.411	5.36
509.608	5.33
509.805	5.44
510.003	5.37
510.2	5.52
510.397	5.63
510.594	5.51
510.791	5.58
510.988	5.61
511.184	5.63
511.381	5.5
511.578	5.72
511.775	5.84
511.972	5.7
512.169	5.76
512.366	5.82
512.563	5.95
512.76	5.94
512.956	6.05
513.153	6
513.35	5.91
513.547	5.93
513.744	6.06
513.94	6
514.137	6.13
514.334	6.14
514.53	6.12
514.727	6.33
514.924	6.21
515.12	6.23
515.317	6.26
515.514	6.21
515.71	6.18
515.907	6.48
516.103	6.38
516.3	6.32
516.497	6.49
516.693	6.46
516.89	6.49
517.086	6.49
517.283	6.53
517.479	6.46
517.676	6.64
517.872	6.63
518.068	6.61
518.265	6.6
518.461	6.53
518.658	6.72
518.854	6.68
519.05	6.78
519.247	6.77
519.443	6.76
519.639	6.86
519.836	6.76
520.032	6.77
520.228	6.86
520.424	6.85
520.621	6.88
520.817	6.9
521.013	6.91
521.209	7.07
521.405	7.07
521.601	6.98
521.798	6.97
521.994	7.02
522.19	6.94
522.386	7.03
522.582	7.11
522.778	7.23
522.974	7.09
523.17	7.09
523.366	7.07
523.562	7.18
523.758	7.17
523.954	7.05
524.15	7.17
524.346	7.25
524.542	7.19
524.738	7.25
524.934	7.3
525.129	7.32
525.325	7.22
525.521	7.22
525.717	7.45
525.913	7.29
526.109	7.35
526.304	7.42
526.5	7.44
526.696	7.41
526.892	7.35
527.087	7.62
527.283	7.48
527.479	7.42
527.674	7.25
527.87	7.49
528.066	7.47
528.261	7.52
528.457	7.41
528.653	7.61
528.848	7.53
529.044	7.66
529.239	7.53
529.435	7.56
529.63	7.48
529.826	7.5
530.021	7.53
530.217	7.58
530.412	7.54
530.608	7.62
530.803	7.61
530.999	7.48
531.194	7.57
531.389	7.64
531.585	7.61
531.78	7.81
531.975	7.69
532.171	7.76
532.366	7.69
532.561	7.75
532.757	7.69
532.952	7.92
533.147	7.59
533.342	7.83
533.538	7.66
533.733	7.84
533.928	7.58
534.123	7.75
534.318	7.84
534.513	7.73
534.709	7.9
534.904	7.9
535.099	7.88
535.294	7.84
535.489	7.93
535.684	7.83
535.879	7.8
536.074	7.86
536.269	7.87
536.464	7.96
536.659	7.87
536.854	7.85
537.049	7.91
537.244	7.87
537.439	7.93
537.634	7.9
537.828	7.96
538.023	7.97
538.218	7.91
538.413	7.77
538.608	7.88
538.803	7.93
538.997	7.91
539.192	7.88
539.387	7.84
539.582	7.89
539.776	7.88
539.971	7.98
540.166	8.01
540.36	7.92
540.555	8.06
540.75	8
540.944	7.99
541.139	8.01
541.334	7.99
541.528	7.97
541.723	8.09
541.917	8.07
542.112	7.9
542.306	7.88
542.501	7.89
542.695	7.96
542.89	7.98
543.084	8
543.279	8.01
543.473	8.01
543.668	8.12
543.862	7.88
544.056	7.91
544.251	8.05
544.445	8.05
544.64	8.09
544.834	7.79
545.028	7.65
545.222	8.01
545.417	8.2
545.611	8.12
545.805	8
546	7.85
546.194	8.07
546.388	8.09
546.582	7.98
546.776	8.03
546.97	8.05
547.165	8.05
547.359	8.02
547.553	8.01
547.747	7.99
547.941	8.3
548.135	8.05
548.329	8.05
548.523	8.03
548.717	8.07
548.911	8.02
549.105	8.05
549.299	8.07
549.493	8.1
549.687	7.92
549.881	8.13
550.075	8.13
550.269	7.96
550.463	8.12
550.657	8.08
550.85	8.07
551.044	8.07
551.238	8.08
551.432	8.06
551.626	8.15
551.82	8.04
552.013	8.01
552.207	8.17
552.401	8.15
552.594	8.03
552.788	8.02
552.982	8
553.176	8.01
553.369	8.29
553.563	8.16
553.756	8.07
553.95	8.11
554.144	8.13
554.337	8.13
554.531	7.91
554.724	8.08
554.918	8.16
555.111	7.99
555.305	8.1
555.498	7.98
555.692	8.16
555.885	8.09
556.079	8.03
556.272	8.08
556.466	8.06
556.659	8.02
556.852	8.12
557.046	8.03
557.239	7.93
557.432	8.04
557.626	8.15
557.819	8.15
558.012	8.09
558.206	8.22
558.399	8.11
558.592	8.08
558.785	7.96
558.979	8.08
559.172	8.13
559.365	8.07
559.558	8.06
559.751	8.03
559.944	8.23
560.138	7.98
560.331	8.05
560.524	8.15
560.717	8.11
560.91	8.06
561.103	8.13
561.296	7.94
561.489	8.16
561.682	8.21
561.875	8.13
562.068	8.16
562.261	7.97
562.454	8.21
562.647	8.03
562.84	8.11
563.032	8.19
563.225	8.07
563.418	8.02
563.611	8.17
563.804	8.14
563.997	7.96
564.19	7.85
564.382	8.24
564.575	8.15
564.768	7.98
564.961	8.14
565.153	8.02
565.346	8.04
565.539	8.15
565.731	8.08
565.924	8.18
566.117	8.24
566.309	8.15
566.502	8.02
566.695	8
566.887	8.16
567.08	8.11
567.272	8.19
567.465	7.98
567.657	8.1
567.85	8.01
568.042	8.07
568.235	8.09
568.427	7.92
568.62	8.09
568.812	7.97
569.005	8.1
569.197	8.03
569.389	8.05
569.582	8.05
569.774	8.07
569.966	7.92
570.159	7.97
570.351	7.95
570.543	7.96
570.736	8.05
570.928	7.88
571.12	8.04
571.312	7.94
571.505	7.83
571.697	8.03
571.889	8.01
572.081	8.01
572.273	7.97
572.465	7.99
572.658	7.96
572.85	8.02
573.042	8.02
573.234	7.95
573.426	7.96
573.618	7.88
573.81	7.99
574.002	7.96
574.194	7.97
574.386	7.89
574.578	7.87
574.77	7.9
574.962	7.92
575.154	7.82
575.346	7.8
575.538	7.79
575.729	7.84
575.921	7.94
576.113	8.01
576.305	7.89
576.497	7.91
576.689	7.83
576.88	7.72
577.072	7.92
577.264	7.85
577.456	7.86
577.647	7.84
577.839	7.96
578.031	7.89
578.223	7.82
578.414	7.67
578.606	7.84
578.798	7.84
578.989	7.82
579.181	7.93
579.372	7.81
579.564	7.8
579.755	7.78
579.947	7.8
580.139	7.78
580.33	7.67
580.522	7.75
580.713	7.7
580.905	7.73
581.096	7.81
581.287	7.7
581.479	7.77
581.67	7.78
581.862	7.63
582.053	7.69
582.244	7.58
582.436	7.82
582.627	7.65
582.818	7.6
583.01	7.61
583.201	7.68
583.392	7.6
583.583	7.63
583.775	7.53
583.966	7.58
584.157	7.59
584.348	7.69
584.54	7.53
584.731	7.56
584.922	7.51
585.113	7.45
585.304	7.56
585.495	7.53
585.686	7.62
585.877	7.6
586.068	7.63
586.259	7.53
586.45	7.58
586.641	7.44
586.832	7.61
587.023	7.48
587.214	7.41
587.405	7.57
587.596	7.42
587.787	7.38
587.978	7.47
588.169	7.42
588.36	7.32
588.551	7.37
588.742	7.39
588.932	7.44
589.123	7.2
589.314	7.47
589.505	7.37
589.696	7.39
589.886	7.38
590.077	7.32
590.268	7.22
590.458	7.22
590.649	7.2
590.84	7.31
591.03	7.27
591.221	7.28
591.412	7.14
591.602	7.35
591.793	7.19
591.984	7.24
592.174	7.18
592.365	7.28
592.555	7.05
592.746	7.16
592.936	7.12
593.127	7.16
593.317	7.21
593.508	7.21
593.698	7.1
593.889	7.05
594.079	7.09
594.269	6.97
594.46	7.04
594.65	7.13
594.84	6.95
595.031	6.99
595.221	6.95
595.411	6.95
595.602	6.98
595.792	6.92
595.982	6.88
596.172	7.03
596.363	6.93
596.553	6.92
596.743	6.93
596.933	6.9
597.123	6.88
597.314	6.76
597.504	6.8
597.694	6.9
597.884	6.74
598.074	6.86
598.264	6.74
598.454	6.76
598.644	6.75
598.834	6.79
599.024	6.72
599.214	6.64
599.404	6.79
599.594	6.75
599.784	6.66
599.974	6.76
600.164	6.64
600.354	6.61
600.544	6.53
600.734	6.58
600.924	6.59
601.114	6.52
601.303	6.53
601.493	6.53
601.683	6.59
601.873	6.54
602.063	6.48
602.252	6.45
602.442	6.39
602.632	6.47
602.821	6.42
603.011	6.47
603.201	6.41
603.39	6.37
603.58	6.27
603.77	6.37
603.959	6.41
604.149	6.37
604.339	6.37
604.528	6.41
604.718	6.4
604.907	6.29
605.097	6.24
605.286	6.26
605.476	6.2
605.665	6.28
605.855	6.21
606.044	6.34
606.234	6.22
606.423	6.2
606.612	6.1
606.802	6.16
606.991	6.2
607.181	6.19
607.37	6.13
607.559	5.89
607.749	6.08
607.938	5.97
608.127	6.05
608.316	6.03
608.506	5.99
608.695	6.06
608.884	6.02
609.073	6.06
609.263	6.02
609.452	6
609.641	5.89
609.83	5.79
610.019	5.86
610.208	5.85
610.397	5.83
610.586	5.82
610.775	5.78
610.965	5.82
611.154	5.73
611.343	5.82
611.532	5.67
611.721	5.81
611.91	5.71
612.099	5.64
612.287	5.68
612.476	5.6
612.665	5.7
612.854	5.56
613.043	5.57
613.232	5.61
613.421	5.55
613.61	5.57
613.798	5.56
613.987	5.54
614.176	5.5
614.365	5.52
614.554	5.56
614.742	5.54
614.931	5.41
615.12	5.54
615.309	5.42
615.497	5.36
615.686	5.34
615.875	5.39
616.063	5.32
616.252	5.27
616.44	5.29
616.629	5.34
616.818	5.27
617.006	5.28
617.195	5.19
617.383	5.13
617.572	5.18
617.76	5.17
617.949	5.12
618.137	5.21
618.326	5.31
618.514	5.06
618.703	5.02
618.891	5.2
619.079	5.04
619.268	5.17
619.456	5
619.644	5.06
619.833	4.98
620.021	5.01
620.209	4.95
620.398	4.96
620.586	4.93
620.774	5.01
620.962	4.95
621.151	4.98
621.339	4.88
621.527	4.84
621.715	4.9
621.903	4.93
622.092	4.79
622.28	4.87
622.468	4.74
622.656	4.82
622.844	4.73
623.032	4.83
623.22	4.66
623.408	4.78
623.596	4.77
623.784	4.8
623.972	4.6
624.16	4.69
624.348	4.67
624.536	4.71
624.724	4.58
624.912	4.63
625.1	4.68
625.288	4.61
625.476	4.5
625.664	4.62
625.851	4.53
626.039	4.58
626.227	4.47
626.415	4.48
626.603	4.43
626.79	4.49
626.978	4.45
627.166	4.49
627.354	4.4
627.541	4.33
627.729	4.25
627.917	4.56
628.104	4.43
628.292	4.29
628.48	4.41
628.667	4.27
628.855	4.33
629.042	4.34
629.23	4.26
629.418	4.25
629.605	4.27
629.793	4.14
629.98	4.26
630.168	4.16
630.355	4.21
630.543	4.11
630.73	4.1
630.917	4.12
631.105	4.19
631.292	4.08
631.48	4.1
631.667	4.16
631.854	4.01
632.042	4.02
632.229	3.96
632.416	4.06
632.604	4.02
632.791	3.91
632.978	3.99
633.165	3.91
633.353	4.02
633.54	4.05
633.727	3.83
633.914	3.89
634.101	3.83
634.289	3.96
634.476	3.83
634.663	3.85
634.85	3.81
635.037	3.79
635.224	3.68
635.411	3.82
635.598	3.73
635.785	3.73
635.972	3.69
636.159	3.72
636.346	3.73
636.533	3.67
636.72	3.67
636.907	3.63
637.094	3.62
637.281	3.55
637.468	3.64
637.655	3.64
637.842	3.65
638.029	3.5
638.215	3.55
638.402	3.52
638.589	3.44
638.776	3.53
638.963	3.45
639.149	3.49
639.336	3.52
639.523	3.46
639.709	3.51
639.896	3.46
640.083	3.4
640.27	3.41
640.456	3.35
640.643	3.39
640.829	3.28
641.016	3.34
641.203	3.28
641.389	3.41
641.576	3.3
641.762	3.26
641.949	3.24
642.135	3.27
642.322	3.19
642.508	3.19
642.695	3.26
642.881	3.19
643.068	3.17
643.254	3.19
643.441	3.21
643.627	3.24
643.813	3.07
644	3.22
644.186	3.06
644.372	3.15
644.559	3.12
644.745	3.1
644.931	3.05
645.118	3.06
645.304	3.08
645.49	3.02
645.676	2.98
645.862	3.03
646.049	3.12
646.235	3
646.421	3.15
646.607	3.12
646.793	2.94
646.979	2.89
647.165	2.99
647.352	2.93
647.538	2.94
647.724	2.91
647.91	2.9
648.096	2.9
648.282	2.91
648.468	2.86
648.654	2.9
648.84	2.94
649.026	2.88
649.212	2.8
649.397	2.79
649.583	2.83
649.769	2.81
649.955	2.82
650.141	2.79
650.327	2.77
650.513	2.68
650.698	2.77
650.884	2.68
651.07	2.74
651.256	2.68
651.442	2.69
651.627	2.68
651.813	2.69
651.999	2.62
652.184	2.68
652.37	2.62
652.556	2.63
652.741	2.67
652.927	2.51
653.113	2.6
653.298	2.65
653.484	2.63
653.669	2.53
653.855	2.55
654.04	2.6
654.226	2.58
654.412	2.55
654.597	2.52
654.782	2.53
654.968	2.57
655.153	2.57
655.339	2.5
655.524	2.51
655.71	2.53
655.895	2.51
656.08	2.44
656.266	2.56
656.451	2.5
656.636	2.4
656.822	2.4
657.007	2.42
657.192	2.43
657.378	2.34
657.563	2.36
657.748	2.43
657.933	2.36
658.118	2.32
658.304	2.35
658.489	2.39
658.674	2.32
658.859	2.37
659.044	2.38
659.229	2.33
659.414	2.27
659.599	2.3
659.785	2.22
659.97	2.25
660.155	2.27
660.34	2.32
660.525	2.23
660.71	2.21
660.895	2.28
661.08	2.21
661.264	2.13
661.449	2.2
661.634	2.19
661.819	2.19
662.004	2.09
662.189	2.03
662.374	2.12
662.559	2.04
662.743	2.02
662.928	2.09
663.113	2
663.298	2.04
663.483	2.04
663.667	2.05
663.852	1.95
664.037	2.07
664.221	1.97
664.406	2.05
664.591	2.02
664.775	1.98
664.96	1.91
665.145	1.92
665.329	1.96
665.514	1.97
665.698	1.9
665.883	1.89
666.068	1.96
666.252	1.91
666.437	1.8
666.621	1.88
666.806	1.86
666.99	1.84
667.174	1.77
667.359	1.87
667.543	1.79
667.728	1.84
667.912	1.75
668.096	1.8
668.281	1.73
668.465	1.84
668.649	1.72
668.834	1.73
669.018	1.76
669.202	1.74
669.387	1.68
669.571	1.71
669.755	1.71
669.939	1.69
670.124	1.68
670.308	1.73
670.492	1.74
670.676	1.69
670.86	1.64
671.044	1.61
671.228	1.67
671.413	1.57
671.597	1.6
671.781	1.62
671.965	1.66
672.149	1.65
672.333	1.63
672.517	1.6
672.701	1.62
672.885	1.53
673.069	1.51
673.253	1.63
673.437	1.53
673.621	1.56
673.804	1.55
673.988	1.53
674.172	1.5
674.356	1.45
674.54	1.53
674.724	1.56
674.908	1.45
675.091	1.5
675.275	1.51
675.459	1.53
675.643	1.43
675.826	1.5
676.01	1.48
676.194	1.45
676.377	1.47
676.561	1.49
676.745	1.43
676.928	1.44
677.112	1.5
677.296	1.4
677.479	1.38
677.663	1.37
677.846	1.39
678.03	1.43
678.213	1.34
678.397	1.4
678.58	1.38
678.764	1.37
678.947	1.31
679.131	1.34
679.314	1.42
679.498	1.35
679.681	1.37
679.865	1.38
680.048	1.33
680.231	1.31
680.415	1.33
680.598	1.23
680.781	1.3
680.965	1.29
681.148	1.32
681.331	1.22
681.514	1.28
681.698	1.26
681.881	1.25
682.064	1.29
682.247	1.26
682.43	1.21
682.614	1.34
682.797	1.3
682.98	1.31
683.163	1.17
683.346	1.21
683.529	1.2
683.712	1.18
683.895	1.24
684.078	1.16
684.261	1.17
684.444	1.24
684.627	1.19
684.81	1.14
684.993	1.17
685.176	1.2
685.359	1.15
685.542	1.16
685.725	1.19
685.908	1.16
686.091	1.11
686.274	1.13
686.457	1.18
686.639	1.14
686.822	1.16
687.005	1.14
687.188	1.16
687.371	1.21
687.553	1.12
687.736	1.13
687.919	1.22
688.102	1.15
688.284	1.1
688.467	1.09
688.65	1.01
688.832	1.01
689.015	1.08
689.197	0.99
689.38	1.16
689.563	1.18
689.745	0.95
689.928	1.01
690.11	0.98
690.293	1.06
690.475	0.98
690.658	0.99
690.84	1.01
691.023	0.96
691.205	0.99
691.388	1.04
691.57	1.1
691.752	1.03
691.935	0.96
692.117	0.92
692.3	0.99
692.482	1
692.664	0.88
692.847	0.98
693.029	1.07
693.211	0.93
693.393	0.97
693.576	0.98
693.758	0.93
693.94	0.99
694.122	0.93
694.304	0.93
694.487	0.92
694.669	0.92
694.851	0.89
695.033	0.95
695.215	0.9
695.397	0.91
695.579	0.92
695.761	0.82
695.943	0.85
696.125	1.01
696.308	0.95
696.49	0.79
696.671	0.99
696.853	0.87
697.035	1.08
697.217	0.92
697.399	0.95
697.581	0.85
697.763	0.9
697.945	0.84
698.127	0.91
698.309	0.95
698.491	0.85
698.672	0.95
698.854	0.9
699.036	0.96
699.218	0.86
699.399	0.92
699.581	0.9
699.763	0.87
699.945	0.81
700.126	0.78
700.308	0.85
700.49	0.81
700.671	0.72
700.853	0.77
701.035	0.77
701.216	0.84
701.398	0.78
701.579	0.81
701.761	0.89
701.943	0.76
702.124	0.78
702.306	0.79
702.487	0.9
702.669	0.81
702.85	0.74
703.031	0.68
703.213	0.85
703.394	0.84
703.576	0.77
703.757	0.9
703.938	0.8
704.12	0.95
704.301	0.78
704.483	0.75
704.664	0.79
704.845	0.93
705.026	0.82
705.208	0.74
705.389	0.86
705.57	0.86
705.751	0.77
705.933	0.77
706.114	0.82
706.295	0.78
706.476	0.66
706.657	0.8
706.838	0.8
707.02	0.85
707.201	0.73
707.382	0.69
707.563	0.76
707.744	0.7
707.925	0.67
708.106	0.7
708.287	0.79
708.468	0.78
708.649	0.73
708.83	0.73
709.011	0.68
709.192	0.74
709.373	0.65
709.554	0.73
709.734	0.7
709.915	0.73
710.096	0.7
710.277	0.57
710.458	0.71
710.639	0.74
710.819	0.61
711	0.69
711.181	0.84
711.362	0.71
711.542	0.72
711.723	0.72
711.904	0.76
712.085	0.68
712.265	0.67
712.446	0.61
712.627	0.72
712.807	0.65
712.988	0.69
713.168	0.56
713.349	0.77
713.53	0.53
713.71	0.56
713.891	0.61
714.071	0.65
714.252	0.62
714.432	0.66
714.613	0.45
714.793	0.65
714.974	0.71
715.154	0.72
715.334	0.76
715.515	0.73
715.695	0.56
715.876	0.58
716.056	0.58
716.236	0.57
716.417	0.67
716.597	0.6
716.777	0.74
716.957	0.6
717.138	0.67
717.318	0.64
717.498	0.56
717.678	0.68
717.859	0.6
718.039	0.57
718.219	0.66
718.399	0.7
718.579	0.54
718.759	0.56
718.939	0.62
719.12	0.68
719.3	0.6
719.48	0.51
719.66	0.47
719.84	0.81
720.02	0.61
720.2	0.54
720.38	0.61
720.56	0.73
720.74	0.65
720.92	0.64
721.1	0.72
721.279	0.7
721.459	0.6
721.639	0.54
721.819	0.61
721.999	0.65
722.179	0.57
722.359	0.56
722.538	0.65
722.718	0.66
722.898	0.58
723.078	0.57
723.257	0.54
723.437	0.62
723.617	0.61
723.797	0.64
723.976	0.64
724.156	0.7
724.336	0.64
724.515	0.76
724.695	0.52
724.874	0.6
725.054	0.63
725.234	0.59
725.413	0.62
725.593	0.6
725.772	0.63
725.952	0.62
726.131	0.59
726.311	0.6
726.49	0.56
726.67	0.51
726.849	0.5
727.028	0.67
727.208	0.52
727.387	0.64
727.567	0.56
727.746	0.58
727.925	0.52
728.105	0.5
728.284	0.5
728.463	0.55
728.643	0.66
728.822	0.58
729.001	0.56
729.18	0.63
729.359	0.62
729.539	0.61
729.718	0.6
729.897	0.7
730.076	0.58
730.255	0.57
730.434	0.69
730.614	0.63
730.793	0.65
730.972	0.49
731.151	0.62
731.33	0.73
731.509	0.66
731.688	0.65
731.867	0.63
732.046	0.49
732.225	0.79
732.404	0.51
732.583	0.59
732.762	0.62
732.941	0.62
733.12	0.69
733.298	0.57
733.477	0.6
733.656	0.57
733.835	0.47
734.014	0.65
734.193	0.6
734.371	0.61
734.55	0.75
734.729	0.47
734.908	0.57
735.086	0.69
735.265	0.68
735.444	0.46
735.623	0.55
735.801	0.52
735.98	0.56
736.159	0.49
736.337	0.67
736.516	0.7
736.694	0.55
736.873	0.55
737.052	0.71
737.23	0.82
737.409	0.49
737.587	0.8
737.766	0.44
737.944	0.62
738.123	0.63
738.301	0.6
738.479	0.6
738.658	0.65
738.836	0.41
739.015	0.59
739.193	0.64
739.371	0.47
739.55	0.62
739.728	0.41
739.906	0.73
740.085	0.74
740.263	0.64
740.441	0.35
740.62	0.72
740.798	0.69
740.976	0.52
741.154	0.4
741.332	0.73
741.511	0.51
741.689	0.64
741.867	0.57
742.045	0.54
742.223	0.54
742.401	0.47
742.579	0.47
742.757	0.53
742.935	0.41
743.114	0.44
743.292	0.49
743.47	0.54
743.648	0.5
743.826	0.5
744.004	0.57
744.181	0.69
744.359	0.48
744.537	0.58
744.715	0.5
744.893	0.52
745.071	0.51
745.249	0.49
745.427	0.58
745.605	0.53
745.782	0.47
745.96	0.51
746.138	0.57
746.316	0.48
746.493	0.45
746.671	0.49
746.849	0.5
747.027	0.64
747.204	0.34
747.382	0.52
747.56	0.38
747.737	0.47
747.915	0.31
748.093	0.5
748.27	0.35
748.448	0.3
748.625	0.3
748.803	0.48
748.98	0.37
749.158	0.55
749.335	0.52
749.513	0.51
749.69	0.43
749.868	0.44
750.045	0.52
750.223	0.37
750.4	0.32
750.578	0.55
750.755	0.41
750.932	0.32
751.11	0.65
751.287	0.35
751.464	0.57
751.642	0.34
751.819	0.47
751.996	0.49
752.173	0.34
752.351	0.31
752.528	0.35
752.705	0.32
752.882	0.4
753.06	0.44
753.237	0.45
753.414	0.57
753.591	0.48
753.768	0.44
753.945	0.33
754.122	0.32
754.299	0.47
754.476	0.47
754.654	0.38
754.831	0.46
755.008	0.33
755.185	0.27
755.362	0.3
755.539	0.35
755.716	0.55
755.892	0.41
756.069	0.41
756.246	0.5
756.423	0.53
756.6	0.58
756.777	0.31
756.954	0.6
757.131	0.46
757.307	0.29
757.484	0.3
757.661	0.52
757.838	0.42
758.015	0.27
758.191	0.57
758.368	0.31
758.545	0.57
758.721	0.44
758.898	0.25
759.075	0.49
759.251	0.39
759.428	0.42
759.605	0.21
759.781	0.4
759.958	0.46
760.134	0.44
760.311	0.35
760.488	0.53
760.664	0.54
760.841	0.34
761.017	0.29
761.194	0.55
761.37	0.54
761.547	0.37
761.723	0.38
761.899	0.58
762.076	0.3
762.252	0.24
762.429	0.34
762.605	0.55
762.781	0.25
762.958	0.5
763.134	0.29
763.31	0.34
763.486	0.54
763.663	0.15
763.839	0.33
764.015	0.26
764.191	0.39
764.368	0.4
764.544	0.31
764.72	0.31
764.896	0.54
765.072	0.41
765.248	0.35
765.425	0.34
765.601	0.43
765.777	0.24
765.953	0.22
766.129	0.3
766.305	0.26
766.481	0.38
766.657	0.4
766.833	0.59
767.009	0.06
767.185	0.32
767.361	0.35
767.537	0.23
767.713	0.53
767.889	0.39
768.065	0.37
768.24	0.39
768.416	0.48
768.592	0.36
768.768	0.29
768.944	0.5
769.12	0.4
769.295	0.29
769.471	0.4
769.647	0.43
769.823	0.51
769.998	0.36
770.174	0.29
770.35	0.65
770.525	0.59
770.701	0.38
770.877	0.41
771.052	0.28
771.228	0.49
771.403	0.45
771.579	0.51
771.755	0.64
771.93	0.5
772.106	0.24
772.281	0.3
772.457	0.53
772.632	0.5
772.808	0.25
772.983	0.31
773.159	0.18
773.334	0.4
773.509	0.41
773.685	0.29
773.86	0.53
774.036	0.56
774.211	0.42
774.386	0.44
774.562	0.31
774.737	0.2
774.912	0.23
775.087	0.39
775.263	0.42
775.438	0.41
775.613	0.39
775.788	0.33
775.964	0.62
776.139	0.74
776.314	0.23
776.489	0.48
776.664	0.39
776.839	0.25
777.014	0.55
777.19	0.49
777.365	0.72
777.54	0.55
777.715	0.35
777.89	0.37
778.065	0.33
778.24	0.34
778.415	0.54
778.59	0.28
778.765	0.33
778.94	0.4
779.115	0.32
779.289	0.35
779.464	0.44
779.639	0.36
779.814	0.15
779.989	0.29
780.164	0.64
780.339	0.47
780.513	0.25
780.688	0.34
780.863	0.46
781.038	0.51
781.212	0.18
781.387	0.32
781.562	0.57
781.737	0.54
781.911	0.65
782.086	0.3
782.261	0.41
782.435	0.47
782.61	0.36
782.784	0.2
782.959	0.66
783.134	0.44
783.308	0.45
783.483	0.33
783.657	0.77
783.832	0.77
784.006	0.2
784.181	0.35
784.355	0.46
784.53	0.25
784.704	0.39
784.878	0.7
785.053	0.63
785.227	0.64
785.402	0.75
785.576	0.17
785.75	0.4
785.925	0.26
786.099	0.44
786.273	0.51
786.448	0.51
786.622	0.49
786.796	0.42
786.97	0.52
787.145	0.97
787.319	0.22
787.493	0.36
787.667	0.27
787.841	0.68
788.015	0.85
788.19	0.29
788.364	0.53
788.538	0.45
788.712	0.5
788.886	0.49
789.06	0.5
789.234	0.72
789.408	0.44
789.582	0.17
789.756	0.55
789.93	0.29
790.104	0.49
790.278	0.09
790.452	0.15
790.626	0.53
790.8	0.27
790.973	0.62
791.147	0.71
791.321	0.71
791.495	0.62
791.669	0.61
791.843	0.6
792.016	0.34
792.19	1.09
792.364	0.24
792.538	0.83
792.711	0.76
792.885	0.3
793.059	0.43
793.233	0.08
793.406	0.61
793.58	0.54
793.754	0.57
793.927	0.5
794.101	0.83
794.274	0.86
794.448	0.77
794.622	0.37
794.795	0.76
794.969	0.27
795.142	0.56
795.316	0.47
795.489	0.3
795.663	0.8
795.836	0.28
796.009	0.35
796.183	0.84
796.356	0.87
796.53	0.59
796.703	0.48
796.876	0.81
797.05	0.35
797.223	0.32
797.396	0.55
797.57	0.74
797.743	0.58
797.916	0.46
798.09	0.61
798.263	0.88
798.436	0.54
798.609	0.44
798.782	0.35
798.956	0.52
799.129	0.68
799.302	0.49
799.475	0.28
799.648	0.26
799.821	0.47
799.994	0.43
800.167	0.03
800.34	0.44
800.514	0.41
800.687	0.43
800.86	0.39
801.033	0.77
801.206	0.53
801.379	0.3
801.551	0.82
801.724	0.47
801.897	0.82
802.07	0.3
802.243	0.19
802.416	0.63
802.589	0.43
802.762	0.55
802.935	0.73
803.107	0.27
803.28	0.71
803.453	0.91
803.626	0.17
803.798	0.47
803.971	0.37
804.144	0.49
804.317	0.81
804.489	0.86
804.662	0.49
804.835	0.5
805.007	0.77
805.18	1.03
805.353	0.67
805.525	0.15
805.698	0.55
805.87	0.69
806.043	0.47
806.215	0.45
806.388	0.09
806.56	0.7
806.733	0.95
806.905	0.8
807.078	0.35
807.25	0.64
807.423	0.77
807.595	0.49
807.768	0.32
807.94	1.07
808.112	0.46
808.285	0.56
808.457	0.42
808.629	0.54
808.802	0.61
808.974	0.59
809.146	0.52
809.318	0.34
809.491	0.88
809.663	0.87
809.835	0.29
810.007	0.71
810.18	0.4
810.352	0.03
810.524	0.52
810.696	0.75
810.868	0.95
811.04	0.4
811.212	0.4
811.384	0.91
811.556	0.48
811.728	0.43
811.901	1.29
812.073	0.3
812.245	0.67
812.417	0.65
812.589	-0.03
812.76	0.29
812.932	0.9
813.104	1.07
813.276	0.64
813.448	1.26
813.62	0.7
813.792	0.68
813.964	0.48
814.136	0.74
814.307	0.49
814.479	0.69
814.651	0.58
814.823	1.79
814.995	0.89
815.166	0.71
815.338	0.52
815.51	0.3
815.681	1.39
815.853	1.1
816.025	0.84
816.196	0.96
816.368	0.65
816.54	0.62
816.711	0.44
816.883	0.56
817.054	1.41
817.226	0.19
817.398	0.87
817.569	0.6
817.741	0.21
817.912	0.56
818.084	1.02
818.255	1.3
818.426	0.39
818.598	0.37
818.769	0.23
818.941	0.71
819.112	1.23
819.283	1.02
819.455	0.5
819.626	0.53
819.798	0.92
819.969	0.76
820.14	0.58
820.311	0.53
820.483	0.9
820.654	0.87
820.825	0.57
820.996	0.5
821.168	0.34
821.339	0.86
821.51	0.15
821.681	0.73
821.852	0.51
822.023	0.48
822.195	0.27
822.366	1.11
822.537	1.03
822.708	0.78
822.879	0.47
823.05	0.78
823.221	0.57
823.392	0.87
823.563	0.87
823.734	0.87
823.905	0.39
824.076	0.36
824.247	0.57
824.418	0.85
824.589	1.92
824.759	0.72
824.93	0.55
825.101	0.37
825.272	1.24
825.443	1.7
825.614	1.48
825.784	0.11
825.955	1.93
826.126	1.8
826.297	1.27
826.467	1.22
826.638	1.87
826.809	0.41
826.98	1.09
827.15	1.46
827.321	1.32
827.492	1.06
827.662	0.92
827.833	1.85
828.003	1.13
828.174	0.18
828.345	0.05
828.515	1.62
828.686	1.08
828.856	0.52
829.027	0.86
829.197	1.21
829.368	1.37
829.538	0.24
829.709	0.61
829.879	1.15
830.049	0.56
830.22	0.61
830.39	0.74
830.56	1.08
830.731	0.88
830.901	0.87
831.072	0.56
831.242	0.79
831.412	0.89
831.582	0.4
831.753	0.36
831.923	1.19
832.093	0.93
832.263	1.16
832.434	0.12
832.604	0.67
832.774	1.45
832.944	0.94
833.114	0.63
833.284	1.25
833.454	0.17
833.624	0.56
833.795	0.78
833.965	1.38
834.135	2.09
834.305	0.09
834.475	0.42
834.645	1.12
834.815	0.39
834.985	0.66
835.155	0.39
835.325	1.24
835.494	1.15
835.664	0.44
835.834	0.05
836.004	0.7
836.174	0.89
836.344	0.89
836.514	1.08
836.684	1.1
836.853	1.31
837.023	1.17
837.193	0.85
837.363	1.87
837.532	1.47
837.702	1.04
837.872	0.87
838.041	1.72
838.211	2.67
838.381	0.65
838.55	1.38
838.72	2.85
838.89	1.97
839.059	0.53
839.229	-0.05
839.398	2.19
839.568	1.2
839.738	1.01
839.907	1.92
840.077	1.1
840.246	0.64
840.416	0.14
840.585	0.25
840.755	1.68
840.924	1.51
841.093	0.87
841.263	1.22
841.432	1.3
841.602	0.66
841.771	0.52
841.94	1.94
842.11	2.41
842.279	1.9
842.448	0.58
842.617	1.21
842.787	2.1
842.956	-0.06
843.125	1.27
843.294	1.02
843.464	2.42
843.633	1.66
843.802	0.28
843.971	1.27
844.14	1.38
844.309	1.7
844.479	1.24
844.648	1
844.817	0.91
844.986	1.1
845.155	0.53
845.324	1.14
845.493	0.76
845.662	1.28
845.831	1.78
846	1.93
846.169	1.09
846.338	2.37
846.507	2.08
846.676	1.32
846.844	0.66
847.013	1.61
847.182	1.77
847.351	1.19
847.52	1.76
847.689	1.82
847.858	1.07
848.026	0.7
848.195	1.5
848.364	1.78
848.533	0.71
848.701	0.23
848.87	1.16
849.039	1.77
849.207	2.11
849.376	3.33
849.545	2.64
849.713	1.21
849.882	1.43
850.051	1.84
850.219	1.09
850.388	1.88
850.556	1.14
850.725	1.21
850.893	1.5
851.062	0.94
851.23	1.2
851.399	0.31
851.567	0.66
851.736	1.8
851.904	1.06
852.073	1.32
852.241	2.01
852.41	3.36
852.578	1.13
852.746	1.28
852.915	2.12
853.083	1.42
853.251	0.07
853.42	1.5
853.588	2.23
853.756	2.15
853.924	0.71
854.093	2.13
854.261	1.71
854.429	1.49
854.597	1.93
854.765	-0.38
854.934	1.56
855.102	2.25
855.27	1.52
855.438	1.82
855.606	2.6
855.774	1.29
855.942	0.44
856.11	-0.36
856.278	1.15
856.446	2.43
856.614	1.34
856.782	1.85
856.95	2.56
857.118	2.39
857.286	1.74
857.454	1.24
857.622	2.63
857.79	1.67
857.958	1.13
858.126	0.81
858.294	0.24
858.462	1.02
858.629	0.26
858.797	1.25
858.965	2.43
859.133	2.41
859.301	0.92
859.468	2.46
859.636	1.53
859.804	3.28
859.971	2.93
860.139	0.98
860.307	2.08
860.474	1.54
860.642	0.61
860.81	0.9
860.977	1.78
861.145	2.45
861.313	2.12
861.48	1.22
861.648	2.94
861.815	0.67
861.983	1.09
862.15	0.59
862.318	2.73
862.485	2.54
862.653	1.18
862.82	1.09
862.988	4.26
863.155	2.25
863.322	1.77
863.49	0.87
863.657	1.36
863.824	3.05
863.992	2.32
864.159	2.17
864.326	3.35
864.494	1.6
864.661	4.3
864.828	0.39
864.996	2.9
865.163	3.2
865.33	1.26
865.497	-0.62
865.664	2.08
865.832	-0.55
865.999	1.04
866.166	1.37
866.333	1.89
866.5	1.63
866.667	1.62
866.834	0.7
867.001	4.47
867.168	0.06
867.335	0.87
867.502	-0.08
867.669	1.94
867.836	2.4
868.003	2.15
868.17	2.48
868.337	5.01
868.504	4.29
868.671	0.39
868.838	1.08
869.005	1.98
869.172	3.22
869.339	1.49
869.505	2.52
869.672	0.87
869.839	3.73
870.006	3.15
870.173	1.72
870.339	2.84
870.506	4.94
870.673	0.25
870.84	2.86
871.006	2.2
871.173	0.51
871.34	3.03
871.506	1.35
871.673	1.87
871.839	0.64
872.006	1.54
872.173	2.12
872.339	4.62
872.506	3.89
872.672	1.66
872.839	0.6
873.005	2.41
873.172	6.02
873.338	2.98
873.505	4.37
873.671	2.14
873.838	3.71
874.004	-0.65
874.171	-0.34
874.337	2.29
874.503	3.3
874.67	1.7
874.836	1.53
875.002	4.53
875.169	3.68
875.335	3.17
875.501	1.72
875.668	2.59
875.834	2.75
876	0.92
876.166	3.72
876.332	2.91
876.499	5.14
876.665	1.72
876.831	0.87
876.997	6.15
877.163	1.45
877.329	1.88
877.495	2.21
877.662	3.48
877.828	2.45
877.994	0.59
878.16	-1.05
878.326	0.89
878.492	2.52
878.658	1.28
878.824	3.64
878.99	4.5
879.156	0.35
879.322	5.94
879.487	1.61
879.653	4.05
879.819	2.35
879.985	1.89
880.151	2.24
880.317	3.77
880.483	4.24
880.648	3.51
880.814	1.44
880.98	2.17
881.146	0.34
881.312	1.95
881.477	1.13
881.643	3.31
881.809	4.67
881.974	4.27
882.14	0.13
882.306	2.31
882.471	5.71
882.637	1.82
882.803	4.25
882.968	5.03
883.134	4.43
883.299	3.35
883.465	2.97
883.63	2.4
883.796	3.09
883.961	3.59
884.127	3.5
884.292	-2.1
884.458	0.4
884.623	0.4
