Data from Apollo_Calib_20240827__AbsoluteIrradiance__739__11-28-01-476.txt Node

Date: Wed Aug 28 11:28:01 BST 2024
User: biology
Spectrometer: FLMT08252
Trigger mode: 0
Integration Time (sec): 5.000000E-1
Scans to average: 5
Electric dark correction enabled: true
Nonlinearity correction enabled: false
Boxcar width: 0
XAxis mode: Wavelengths
Number of Pixels in Spectrum: 3648
>>>>>Begin Spectral Data<<<<<
179.588	-0
179.809	-0
180.03	-0
180.251	-0
180.473	-0
180.694	0
180.915	0
181.136	-0
181.357	0
181.578	-0
181.799	-0
182.02	-0
182.241	-0
182.462	-0
182.683	0
182.904	-0
183.125	0
183.346	0
183.567	0
183.788	0
184.009	0
184.23	0
184.451	0
184.672	0
184.892	0
185.113	0
185.334	0
185.555	0
185.776	0
185.996	0
186.217	0
186.438	0
186.659	0
186.879	0
187.1	0
187.321	0
187.541	0
187.762	0
187.983	0
188.203	0
188.424	0
188.644	0
188.865	0
189.086	0
189.306	0
189.527	0
189.747	0
189.968	0
190.188	0
190.409	0
190.629	0
190.849	0
191.07	0
191.29	0
191.511	0
191.731	0
191.951	0
192.172	0
192.392	0
192.612	0
192.833	0
193.053	0
193.273	0
193.493	0
193.714	0
193.934	0
194.154	0
194.374	0
194.594	0
194.815	0
195.035	0
195.255	0
195.475	0
195.695	0
195.915	0
196.135	0
196.355	0
196.575	0
196.795	0
197.015	0
197.235	0
197.455	0
197.675	0
197.895	0
198.115	0
198.335	0
198.555	0
198.775	0
198.995	0
199.214	0
199.434	0
199.654	0
199.874	0
200.094	2.26
200.313	1.46
200.533	1.04
200.753	0.85
200.973	2.2
201.192	1.94
201.412	-0.07
201.632	0.91
201.851	2.02
202.071	0.52
202.291	1.17
202.51	0.39
202.73	2.08
202.95	0.52
203.169	0.21
203.389	0.79
203.608	1.08
203.828	0.91
204.047	0.7
204.267	1.06
204.486	1.03
204.706	1.12
204.925	1.05
205.145	0.84
205.364	1.39
205.583	1.63
205.803	0.39
206.022	0.27
206.242	0.83
206.461	0.91
206.68	0.5
206.9	0.87
207.119	1.61
207.338	1.4
207.557	0.59
207.777	0.38
207.996	0.92
208.215	1.31
208.434	0.42
208.654	0.25
208.873	0.73
209.092	1.5
209.311	0.47
209.53	0.44
209.749	0.5
209.968	0.41
210.187	0.4
210.407	0.29
210.626	0.53
210.845	0.84
211.064	0.4
211.283	0.32
211.502	0.97
211.721	0.72
211.94	0.57
212.159	0.58
212.377	0.83
212.596	1.01
212.815	0.84
213.034	0.72
213.253	0.72
213.472	0.72
213.691	0.4
213.91	0.27
214.128	0.45
214.347	1
214.566	0.03
214.785	0.27
215.003	0.67
215.222	0.6
215.441	0.65
215.66	0.19
215.878	0.48
216.097	0.82
216.316	0.15
216.534	0.45
216.753	0.78
216.972	0.3
217.19	0.35
217.409	0.11
217.627	0.38
217.846	0.35
218.064	0.36
218.283	0.19
218.501	0.8
218.72	0.67
218.938	0.2
219.157	0.09
219.375	0.62
219.594	0.61
219.812	0.19
220.031	0.16
220.249	0.67
220.467	0.77
220.686	0.24
220.904	0.18
221.122	0.29
221.341	0.55
221.559	0.41
221.777	0.06
221.995	0.51
222.214	0.61
222.432	0.29
222.65	0.53
222.868	0.49
223.086	0.46
223.305	0.35
223.523	0.17
223.741	0.77
223.959	0.18
224.177	0.14
224.395	0.11
224.613	0.44
224.831	0.42
225.049	0.17
225.267	0.23
225.485	0.4
225.703	0.26
225.921	0.44
226.139	0.28
226.357	0.28
226.575	0.25
226.793	0.19
227.011	0.81
227.229	0.37
227.447	0.43
227.665	0.36
227.883	0.1
228.1	0.3
228.318	0.39
228.536	-0.02
228.754	0.1
228.972	0.46
229.189	0.45
229.407	0.14
229.625	0.33
229.843	0.49
230.06	0.35
230.278	0.24
230.496	0.36
230.713	0.22
230.931	0.45
231.149	0.24
231.366	0.1
231.584	0.31
231.801	0.71
232.019	0.18
232.236	0.13
232.454	0.09
232.671	0.36
232.889	0.22
233.106	0.1
233.324	0.33
233.541	0.26
233.759	0.2
233.976	0.16
234.194	0.28
234.411	0.32
234.628	0.23
234.846	0.14
235.063	0.17
235.28	0.3
235.498	0.3
235.715	0.16
235.932	0.44
236.149	0.37
236.367	0.22
236.584	0.33
236.801	0.12
237.018	0.36
237.236	0.23
237.453	0.02
237.67	0.41
237.887	0.21
238.104	0.21
238.321	0.08
238.538	0.22
238.755	0.41
238.973	0.06
239.19	0.27
239.407	0.33
239.624	0.37
239.841	0.1
240.058	0.05
240.275	0.34
240.492	0.2
240.709	0.18
240.925	0.18
241.142	0.24
241.359	0.1
241.576	0.11
241.793	0.13
242.01	0.3
242.227	0.29
242.444	0.22
242.66	0.36
242.877	0.24
243.094	0.17
243.311	0.3
243.527	0.19
243.744	0.29
243.961	0.25
244.178	0.17
244.394	0.19
244.611	0.37
244.828	0.39
245.044	0.11
245.261	0.21
245.477	0.28
245.694	0.39
245.911	0.13
246.127	0.23
246.344	0.31
246.56	0.32
246.777	0.22
246.993	0.22
247.21	0.18
247.426	0.32
247.643	0.13
247.859	0.11
248.076	0.14
248.292	0.34
248.508	0.25
248.725	0.25
248.941	0.23
249.157	0.4
249.374	0.19
249.59	0.2
249.806	0.27
250.023	0.32
250.239	0.16
250.455	0.11
250.671	0.17
250.888	0.2
251.104	0.22
251.32	0.21
251.536	0.15
251.752	0.2
251.969	0.18
252.185	0.18
252.401	0.38
252.617	0.29
252.833	0.13
253.049	0.24
253.265	0.12
253.481	0.24
253.697	0.12
253.913	0.13
254.129	0.24
254.345	0.25
254.561	0.18
254.777	0.17
254.993	0.3
255.209	0.2
255.425	0.19
255.641	0.12
255.857	0.28
256.073	0.18
256.288	0.12
256.504	0.16
256.72	0.23
256.936	0.37
257.152	0.17
257.367	0.12
257.583	0.25
257.799	0.31
258.015	0.11
258.23	0.17
258.446	0.34
258.662	0.21
258.877	0.11
259.093	0.11
259.309	0.19
259.524	0.21
259.74	0.08
259.955	0.04
260.171	0.22
260.387	0.24
260.602	0.23
260.818	0.16
261.033	0.15
261.249	0.17
261.464	0.15
261.68	0.13
261.895	0.22
262.11	0.26
262.326	0.19
262.541	0.09
262.757	0.22
262.972	0.26
263.187	0.16
263.403	0.21
263.618	0.24
263.833	0.17
264.049	0.14
264.264	0.12
264.479	0.21
264.694	0.3
264.91	0.14
265.125	0.16
265.34	0.23
265.555	0.34
265.77	0.22
265.986	0.11
266.201	0.24
266.416	0.23
266.631	0.16
266.846	0.21
267.061	0.26
267.276	0.27
267.491	0.07
267.706	0.19
267.921	0.16
268.136	0.2
268.351	0.13
268.566	0.1
268.781	0.28
268.996	0.28
269.211	0.16
269.426	0.12
269.641	0.11
269.856	0.29
270.071	0.11
270.285	0.07
270.5	0.26
270.715	0.3
270.93	0.16
271.145	0.19
271.359	0.23
271.574	0.1
271.789	0.2
272.004	0.16
272.218	0.11
272.433	0.23
272.648	0.13
272.862	0.22
273.077	0.22
273.292	0.19
273.506	0.12
273.721	0.2
273.936	0.2
274.15	0.25
274.365	0.1
274.579	0.17
274.794	0.22
275.008	0.3
275.223	0.16
275.437	0.16
275.652	0.31
275.866	0.24
276.081	0.2
276.295	0.24
276.509	0.15
276.724	0.13
276.938	0.13
277.153	0.18
277.367	0.21
277.581	0.15
277.796	0.12
278.01	0.09
278.224	0.23
278.438	0.34
278.653	0.08
278.867	0.11
279.081	0.2
279.295	0.15
279.51	0.12
279.724	0.07
279.938	0.18
280.152	0.15
280.366	0.13
280.58	0.2
280.794	0.25
281.008	0.21
281.222	0.15
281.437	0.32
281.651	0.19
281.865	0.25
282.079	0.08
282.293	0.03
282.507	0.15
282.721	0.13
282.935	0.12
283.148	0.04
283.362	0.11
283.576	0.09
283.79	0.15
284.004	0.12
284.218	0.22
284.432	0.07
284.646	0.16
284.859	0.12
285.073	0.13
285.287	0.15
285.501	0.16
285.714	0.15
285.928	0.14
286.142	0.1
286.356	0.08
286.569	0.12
286.783	0.25
286.997	0.2
287.21	0.19
287.424	0.14
287.637	0.13
287.851	0.12
288.065	0.16
288.278	0.13
288.492	0.16
288.705	0.05
288.919	0.2
289.132	0.1
289.346	0.17
289.559	0.05
289.773	0.05
289.986	0.12
290.2	0.16
290.413	0.22
290.626	0.1
290.84	0.1
291.053	0.17
291.267	0.19
291.48	0.18
291.693	0.13
291.906	0.11
292.12	0.11
292.333	0.09
292.546	0.07
292.76	0.24
292.973	0.15
293.186	0.16
293.399	0.1
293.612	0.15
293.826	0.13
294.039	0.18
294.252	0.14
294.465	0.19
294.678	0.13
294.891	0.12
295.104	0.1
295.317	0.13
295.53	0.15
295.743	0.16
295.956	0.17
296.169	0.23
296.382	0.22
296.595	0.15
296.808	0.07
297.021	0.21
297.234	0.17
297.447	0.11
297.66	0.18
297.873	0.22
298.086	0.16
298.299	0.07
298.511	0.04
298.724	0.13
298.937	0.08
299.15	0.13
299.363	0.13
299.575	0.18
299.788	0.16
300.001	0.09
300.213	0.1
300.426	0.11
300.639	0.13
300.852	0.12
301.064	0.22
301.277	0.15
301.489	0.17
301.702	0.14
301.915	0.15
302.127	0.11
302.34	0.16
302.552	0.14
302.765	0.12
302.977	0.2
303.19	0.09
303.402	0.14
303.615	0.09
303.827	0.17
304.04	0.14
304.252	0.19
304.464	0.09
304.677	0.24
304.889	0.2
305.102	0.11
305.314	0.09
305.526	0.13
305.739	0.19
305.951	0.06
306.163	0.09
306.375	0.21
306.588	0.12
306.8	0.09
307.012	0.09
307.224	0.15
307.436	0.17
307.649	0.03
307.861	0.16
308.073	0.21
308.285	0.14
308.497	0.08
308.709	0.12
308.921	0.16
309.133	0.19
309.346	0.11
309.558	0.15
309.77	0.16
309.982	0.16
310.194	0.16
310.406	0.08
310.617	0.2
310.829	0.13
311.041	0.16
311.253	0.1
311.465	0.12
311.677	0.16
311.889	0.14
312.101	0.1
312.313	0.18
312.524	0.2
312.736	0.04
312.948	0.1
313.16	0.24
313.372	0.19
313.583	0.15
313.795	0.11
314.007	0.08
314.218	0.2
314.43	0.13
314.642	0.1
314.853	0.04
315.065	0.15
315.277	0.18
315.488	0.13
315.7	0.14
315.912	0.17
316.123	0.16
316.335	0.12
316.546	0.22
316.758	0.15
316.969	0.08
317.181	0.14
317.392	0.15
317.604	0.25
317.815	0.06
318.026	0.04
318.238	0.12
318.449	0.16
318.661	0.05
318.872	0.07
319.083	0.08
319.295	0.21
319.506	0.1
319.717	0.12
319.929	0.22
320.14	0.12
320.351	0.11
320.562	0.09
320.774	0.12
320.985	0.14
321.196	0.09
321.407	0.04
321.618	0.16
321.829	0.15
322.041	0.16
322.252	0.15
322.463	0.18
322.674	0.16
322.885	0.08
323.096	0.13
323.307	0.11
323.518	0.12
323.729	0.09
323.94	0.07
324.151	0.12
324.362	0.15
324.573	0.14
324.784	0.11
324.995	0.21
325.206	0.15
325.417	0.16
325.628	0.07
325.838	0.14
326.049	0.17
326.26	0.2
326.471	0.11
326.682	0.13
326.892	0.19
327.103	0.08
327.314	0.11
327.525	0.22
327.735	0.12
327.946	0.11
328.157	0.1
328.368	0.18
328.578	0.12
328.789	0.19
328.999	0.13
329.21	0.09
329.421	0.19
329.631	0.13
329.842	0.11
330.052	0.13
330.263	0.18
330.473	0.14
330.684	0.08
330.894	0.14
331.105	0.18
331.315	0.15
331.526	0.07
331.736	0.23
331.947	0.16
332.157	0.17
332.367	0.1
332.578	0.15
332.788	0.23
332.999	0.19
333.209	0.11
333.419	0.07
333.629	0.09
333.84	0.16
334.05	0.18
334.26	0.18
334.47	0.13
334.681	0.17
334.891	0.09
335.101	0.18
335.311	0.18
335.521	0.11
335.732	0.08
335.942	0.19
336.152	0.13
336.362	0.13
336.572	0.14
336.782	0.18
336.992	0.08
337.202	0.13
337.412	0.12
337.622	0.14
337.832	0.08
338.042	0.12
338.252	0.09
338.462	0.11
338.672	0.11
338.882	0.12
339.092	0.08
339.302	0.22
339.511	0.16
339.721	0.11
339.931	0.08
340.141	0.18
340.351	0.21
340.561	0.1
340.77	0.18
340.98	0.14
341.19	0.12
341.4	0.07
341.609	0.07
341.819	0.13
342.029	0.03
342.238	0.1
342.448	0.12
342.658	0.18
342.867	0.13
343.077	0.15
343.286	0.1
343.496	0.17
343.706	0.2
343.915	0.03
344.125	0.14
344.334	0.18
344.544	0.09
344.753	0.08
344.963	0.06
345.172	0.07
345.381	0.11
345.591	0.1
345.8	0.13
346.01	0.21
346.219	0.13
346.428	-0.03
346.638	0.12
346.847	0.13
347.056	0.24
347.266	0.11
347.475	0.13
347.684	0.15
347.893	0.14
348.103	0.15
348.312	0.12
348.521	0.14
348.73	0.16
348.94	0.12
349.149	0.1
349.358	0.11
349.567	0.11
349.776	0.1
349.985	0.14
350.194	0.15
350.403	0.15
350.612	0.06
350.821	0.11
351.03	0.12
351.239	0.07
351.448	0.15
351.657	0.08
351.866	0.2
352.075	0.12
352.284	0.15
352.493	0.07
352.702	0.17
352.911	0.12
353.12	0.15
353.329	0.09
353.538	0.13
353.746	0.12
353.955	0.07
354.164	0.15
354.373	0.1
354.582	0.16
354.79	0.12
354.999	0.16
355.208	0.17
355.416	0.25
355.625	0.09
355.834	0.1
356.042	0.16
356.251	0.11
356.46	0.09
356.668	0.16
356.877	0.23
357.085	0.15
357.294	0.08
357.503	0.12
357.711	0.12
357.92	0.27
358.128	0.13
358.337	0.1
358.545	0.13
358.754	0.1
358.962	0.15
359.17	0.08
359.379	0.16
359.587	0.15
359.796	0.12
360.004	0.2
360.212	0.13
360.421	0.18
360.629	0.06
360.837	0.14
361.046	0.15
361.254	0.2
361.462	0.12
361.67	0.11
361.879	0.13
362.087	0.17
362.295	0.15
362.503	0.13
362.711	0.05
362.92	0.13
363.128	0.11
363.336	0.07
363.544	0.09
363.752	0.12
363.96	0.09
364.168	0.09
364.376	0.13
364.584	0.12
364.792	0.19
365	0.15
365.208	0.13
365.416	0.19
365.624	0.16
365.832	0.11
366.04	0.2
366.248	0.14
366.456	0.14
366.664	0.16
366.872	0.12
367.079	0.14
367.287	0.16
367.495	0.16
367.703	0.13
367.911	0.15
368.118	0.11
368.326	0.13
368.534	0.08
368.742	0.19
368.949	0.1
369.157	0.11
369.365	0.15
369.572	0.09
369.78	0.08
369.988	0.13
370.195	0.14
370.403	0.15
370.61	0.08
370.818	0.14
371.026	0.19
371.233	0.1
371.441	0.13
371.648	0.13
371.856	0.12
372.063	0.15
372.271	0.1
372.478	0.09
372.685	0.16
372.893	0.22
373.1	0.1
373.308	0.06
373.515	0.2
373.722	0.13
373.93	0.15
374.137	0.14
374.344	0.2
374.552	0.15
374.759	0.18
374.966	0.1
375.173	0.13
375.381	0.2
375.588	0.12
375.795	0.05
376.002	0.09
376.209	0.11
376.417	0.13
376.624	0.14
376.831	0.15
377.038	0.14
377.245	0.06
377.452	0.12
377.659	0.18
377.866	0.1
378.073	0.18
378.28	0.11
378.487	0.16
378.694	0.16
378.901	0.11
379.108	0.07
379.315	0.15
379.522	0.2
379.729	0.14
379.936	0.12
380.143	0.16
380.35	0.15
380.557	0.16
380.763	0.14
380.97	0.09
381.177	0.15
381.384	0.14
381.591	0.12
381.797	0.11
382.004	0.19
382.211	0.17
382.418	0.07
382.624	0.16
382.831	0.2
383.038	0.13
383.244	0.16
383.451	0.09
383.658	0.13
383.864	0.12
384.071	0.11
384.277	0.21
384.484	0.09
384.69	0.19
384.897	0.11
385.103	0.12
385.31	0.12
385.516	0.11
385.723	0.11
385.929	0.15
386.136	0.12
386.342	0.15
386.549	0.12
386.755	0.19
386.961	0.22
387.168	0.1
387.374	0.19
387.58	0.18
387.787	0.13
387.993	0.18
388.199	0.12
388.406	0.09
388.612	0.14
388.818	0.12
389.024	0.11
389.231	0.15
389.437	0.18
389.643	0.19
389.849	0.13
390.055	0.14
390.261	0.16
390.467	0.18
390.674	0.13
390.88	0.19
391.086	0.18
391.292	0.11
391.498	0.16
391.704	0.14
391.91	0.15
392.116	0.16
392.322	0.07
392.528	0.19
392.734	0.13
392.94	0.09
393.146	0.14
393.352	0.21
393.557	0.16
393.763	0.15
393.969	0.15
394.175	0.21
394.381	0.13
394.587	0.13
394.792	0.14
394.998	0.18
395.204	0.22
395.41	0.12
395.615	0.14
395.821	0.22
396.027	0.25
396.233	0.12
396.438	0.19
396.644	0.22
396.85	0.17
397.055	0.16
397.261	0.15
397.466	0.3
397.672	0.21
397.878	0.24
398.083	0.17
398.289	0.12
398.494	0.23
398.7	0.18
398.905	0.1
399.111	0.24
399.316	0.13
399.522	0.15
399.727	0.15
399.932	0.13
400.138	0.09
400.343	0.16
400.549	0.2
400.754	0.19
400.959	0.19
401.165	0.2
401.37	0.21
401.575	0.31
401.78	0.17
401.986	0.13
402.191	0.16
402.396	0.17
402.601	0.18
402.807	0.2
403.012	0.17
403.217	0.23
403.422	0.21
403.627	0.16
403.832	0.2
404.037	0.27
404.243	0.24
404.448	0.19
404.653	0.15
404.858	0.19
405.063	0.22
405.268	0.21
405.473	0.14
405.678	0.23
405.883	0.37
406.088	0.25
406.293	0.18
406.498	0.2
406.703	0.25
406.907	0.23
407.112	0.22
407.317	0.26
407.522	0.29
407.727	0.26
407.932	0.25
408.136	0.32
408.341	0.27
408.546	0.28
408.751	0.27
408.956	0.25
409.16	0.32
409.365	0.26
409.57	0.28
409.774	0.29
409.979	0.29
410.184	0.36
410.388	0.27
410.593	0.32
410.798	0.35
411.002	0.3
411.207	0.34
411.411	0.37
411.616	0.36
411.82	0.37
412.025	0.42
412.229	0.37
412.434	0.51
412.638	0.4
412.843	0.4
413.047	0.47
413.252	0.43
413.456	0.46
413.66	0.52
413.865	0.44
414.069	0.58
414.273	0.52
414.478	0.5
414.682	0.55
414.886	0.56
415.091	0.52
415.295	0.55
415.499	0.66
415.703	0.62
415.908	0.69
416.112	0.57
416.316	0.79
416.52	0.75
416.724	0.68
416.929	0.76
417.133	0.93
417.337	0.8
417.541	0.79
417.745	0.85
417.949	0.94
418.153	0.95
418.357	0.92
418.561	1.13
418.765	0.98
418.969	1.2
419.173	1.15
419.377	1.13
419.581	1.28
419.785	1.23
419.989	1.16
420.193	1.31
420.397	1.39
420.601	1.39
420.804	1.5
421.008	1.48
421.212	1.53
421.416	1.57
421.62	1.52
421.823	1.59
422.027	1.75
422.231	1.69
422.435	1.68
422.638	1.69
422.842	1.77
423.046	1.79
423.249	1.92
423.453	1.88
423.657	2.02
423.86	1.95
424.064	2.15
424.268	2.24
424.471	2.16
424.675	2.39
424.878	2.36
425.082	2.38
425.285	2.6
425.489	2.42
425.692	2.5
425.896	2.54
426.099	2.64
426.303	2.72
426.506	2.79
426.71	2.9
426.913	3.06
427.116	3.08
427.32	2.97
427.523	3.12
427.726	3.28
427.93	3.26
428.133	3.54
428.336	3.51
428.54	3.56
428.743	3.66
428.946	3.96
429.149	3.81
429.353	3.86
429.556	3.89
429.759	3.86
429.962	3.9
430.165	4.08
430.368	3.9
430.571	3.87
430.775	3.99
430.978	3.87
431.181	3.97
431.384	3.98
431.587	4
431.79	4.23
431.993	4.13
432.196	4.26
432.399	4.53
432.602	4.66
432.805	4.71
433.008	4.87
433.211	4.75
433.414	5.02
433.616	5.03
433.819	5.05
434.022	4.98
434.225	5.28
434.428	5.2
434.631	5.51
434.833	5.26
435.036	5.45
435.239	5.61
435.442	5.6
435.645	5.6
435.847	5.73
436.05	5.88
436.253	5.97
436.455	5.98
436.658	6
436.861	6.13
437.063	6.14
437.266	6.19
437.468	6.27
437.671	6.55
437.874	6.52
438.076	6.4
438.279	6.67
438.481	6.68
438.684	7.15
438.886	7.09
439.089	7.13
439.291	7.15
439.494	7.33
439.696	7.33
439.899	7.81
440.101	7.94
440.303	7.97
440.506	8.54
440.708	8.28
440.91	8.42
441.113	8.61
441.315	8.71
441.517	8.62
441.72	8.98
441.922	8.83
442.124	8.66
442.326	8.91
442.529	9.08
442.731	9.1
442.933	9.34
443.135	9.13
443.337	9.18
443.539	9.48
443.742	9.33
443.944	9.77
444.146	9.63
444.348	9.6
444.55	9.64
444.752	9.76
444.954	9.71
445.156	9.77
445.358	9.88
445.56	10.19
445.762	9.99
445.964	10.26
446.166	10.05
446.368	10.18
446.57	10.18
446.772	10.03
446.974	9.92
447.175	10.13
447.377	9.9
447.579	10
447.781	9.84
447.983	9.83
448.184	9.73
448.386	9.81
448.588	9.6
448.79	9.56
448.991	9.68
449.193	9.79
449.395	9.39
449.597	9.17
449.798	9.12
450	8.87
450.202	8.87
450.403	8.94
450.605	8.85
450.806	8.62
451.008	8.54
451.21	8.34
451.411	8.24
451.613	7.8
451.814	7.92
452.016	7.95
452.217	7.37
452.419	7.5
452.62	7.36
452.821	7.15
453.023	7.09
453.224	6.88
453.426	6.66
453.627	6.21
453.828	6.33
454.03	6.28
454.231	6.26
454.432	6.22
454.634	6.07
454.835	5.85
455.036	5.75
455.238	5.57
455.439	5.49
455.64	5.32
455.841	5.16
456.042	5.32
456.244	5.1
456.445	4.86
456.646	4.74
456.847	4.63
457.048	4.68
457.249	4.7
457.45	4.57
457.651	4.23
457.852	4.2
458.054	3.93
458.255	3.94
458.456	3.96
458.657	3.88
458.858	3.7
459.058	3.69
459.259	3.58
459.46	3.47
459.661	3.53
459.862	3.59
460.063	3.42
460.264	3.4
460.465	3.23
460.666	3.33
460.866	3.13
461.067	2.94
461.268	3.05
461.469	2.95
461.67	2.92
461.87	2.81
462.071	2.83
462.272	2.74
462.473	2.71
462.673	2.86
462.874	2.79
463.075	2.75
463.275	2.74
463.476	2.82
463.676	2.71
463.877	2.68
464.078	2.69
464.278	2.7
464.479	2.67
464.679	2.55
464.88	2.58
465.08	2.61
465.281	2.41
465.481	2.34
465.682	2.2
465.882	2.23
466.083	2.2
466.283	2.14
466.483	2.07
466.684	2
466.884	1.89
467.085	2.03
467.285	2
467.485	1.91
467.686	1.89
467.886	1.82
468.086	1.81
468.286	1.79
468.487	1.8
468.687	1.72
468.887	1.73
469.087	1.85
469.287	1.64
469.488	1.61
469.688	1.69
469.888	1.67
470.088	1.69
470.288	1.61
470.488	1.6
470.688	1.5
470.888	1.53
471.088	1.39
471.288	1.49
471.488	1.46
471.688	1.5
471.888	1.43
472.088	1.49
472.288	1.43
472.488	1.36
472.688	1.32
472.888	1.39
473.088	1.35
473.288	1.32
473.488	1.3
473.688	1.4
473.887	1.3
474.087	1.25
474.287	1.27
474.487	1.24
474.687	1.3
474.886	1.23
475.086	1.18
475.286	1.21
475.486	1.17
475.685	1.16
475.885	1.13
476.085	1.19
476.284	1.21
476.484	1.14
476.684	1.19
476.883	1.25
477.083	1.15
477.282	1.06
477.482	1.14
477.681	1.12
477.881	1.08
478.08	1.05
478.28	1.05
478.479	1.13
478.679	1.16
478.878	1.08
479.078	1.03
479.277	1.1
479.477	1.06
479.676	1.11
479.875	1.06
480.075	0.97
480.274	1.06
480.473	1.09
480.673	1.06
480.872	1.12
481.071	1.1
481.271	1.1
481.47	1.02
481.669	1.02
481.868	1.01
482.067	1.07
482.267	0.95
482.466	1.02
482.665	0.99
482.864	0.99
483.063	1.01
483.262	1.06
483.461	1.07
483.661	1.08
483.86	1.04
484.059	1.09
484.258	1.09
484.457	1.04
484.656	1.04
484.855	1.1
485.054	0.97
485.253	1.03
485.452	1.04
485.651	1.08
485.849	1.05
486.048	1.05
486.247	1.03
486.446	1.1
486.645	1.06
486.844	1.07
487.043	1.07
487.241	1.07
487.44	1.06
487.639	1.1
487.838	1.16
488.037	1.12
488.235	1.19
488.434	1.09
488.633	1.06
488.831	1.18
489.03	1.19
489.229	1.18
489.427	1.14
489.626	1.2
489.825	1.23
490.023	1.2
490.222	1.18
490.42	1.26
490.619	1.23
490.817	1.24
491.016	1.2
491.214	1.3
491.413	1.23
491.611	1.27
491.81	1.23
492.008	1.34
492.207	1.36
492.405	1.32
492.604	1.27
492.802	1.35
493	1.36
493.199	1.38
493.397	1.43
493.595	1.44
493.794	1.41
493.992	1.51
494.19	1.42
494.388	1.54
494.587	1.47
494.785	1.51
494.983	1.44
495.181	1.51
495.379	1.55
495.578	1.59
495.776	1.6
495.974	1.58
496.172	1.56
496.37	1.64
496.568	1.64
496.766	1.63
496.964	1.74
497.162	1.68
497.36	1.71
497.558	1.74
497.756	1.83
497.954	1.78
498.152	1.79
498.35	1.81
498.548	1.81
498.746	1.85
498.944	1.81
499.142	1.83
499.34	1.89
499.538	1.98
499.736	1.87
499.933	2.01
500.131	1.95
500.329	2.05
500.527	2.02
500.725	2.1
500.922	2.09
501.12	2.14
501.318	2.12
501.516	2.11
501.713	2.15
501.911	2.18
502.109	2.15
502.306	2.22
502.504	2.16
502.701	2.24
502.899	2.28
503.097	2.35
503.294	2.28
503.492	2.39
503.689	2.41
503.887	2.37
504.084	2.45
504.282	2.42
504.479	2.38
504.677	2.48
504.874	2.44
505.072	2.45
505.269	2.58
505.466	2.55
505.664	2.59
505.861	2.55
506.059	2.59
506.256	2.62
506.453	2.64
506.651	2.74
506.848	2.73
507.045	2.71
507.242	2.73
507.44	2.74
507.637	2.79
507.834	2.76
508.031	2.87
508.229	2.83
508.426	2.8
508.623	2.88
508.82	2.91
509.017	2.87
509.214	2.88
509.411	2.98
509.608	2.91
509.805	3.01
510.003	2.98
510.2	3.01
510.397	3.13
510.594	3.04
510.791	3.13
510.988	3.11
511.184	3.08
511.381	3.04
511.578	3.14
511.775	3.2
511.972	3.16
512.169	3.2
512.366	3.22
512.563	3.29
512.76	3.31
512.956	3.3
513.153	3.25
513.35	3.24
513.547	3.27
513.744	3.32
513.94	3.31
514.137	3.43
514.334	3.32
514.53	3.39
514.727	3.48
514.924	3.51
515.12	3.4
515.317	3.4
515.514	3.42
515.71	3.39
515.907	3.55
516.103	3.55
516.3	3.52
516.497	3.53
516.693	3.57
516.89	3.58
517.086	3.6
517.283	3.67
517.479	3.51
517.676	3.66
517.872	3.61
518.068	3.64
518.265	3.62
518.461	3.6
518.658	3.65
518.854	3.71
519.05	3.74
519.247	3.75
519.443	3.73
519.639	3.84
519.836	3.76
520.032	3.73
520.228	3.79
520.424	3.84
520.621	3.84
520.817	3.87
521.013	3.83
521.209	3.9
521.405	3.93
521.601	3.86
521.798	3.85
521.994	3.91
522.19	3.83
522.386	3.89
522.582	3.94
522.778	3.98
522.974	3.9
523.17	3.94
523.366	3.85
523.562	3.97
523.758	3.95
523.954	3.86
524.15	3.99
524.346	4.01
524.542	4.02
524.738	4
524.934	4.05
525.129	4.02
525.325	3.96
525.521	4
525.717	4.12
525.913	4.02
526.109	4.02
526.304	4.09
526.5	4.09
526.696	4.11
526.892	4.07
527.087	4.17
527.283	4.13
527.479	4.12
527.674	4.04
527.87	4.12
528.066	4.14
528.261	4.15
528.457	4.11
528.653	4.21
528.848	4.18
529.044	4.23
529.239	4.18
529.435	4.12
529.63	4.15
529.826	4.16
530.021	4.13
530.217	4.25
530.412	4.2
530.608	4.19
530.803	4.2
530.999	4.14
531.194	4.18
531.389	4.27
531.585	4.2
531.78	4.31
531.975	4.24
532.171	4.31
532.366	4.23
532.561	4.3
532.757	4.26
532.952	4.35
533.147	4.2
533.342	4.26
533.538	4.26
533.733	4.36
533.928	4.19
534.123	4.24
534.318	4.33
534.513	4.27
534.709	4.32
534.904	4.3
535.099	4.32
535.294	4.32
535.489	4.36
535.684	4.32
535.879	4.31
536.074	4.41
536.269	4.35
536.464	4.38
536.659	4.34
536.854	4.34
537.049	4.39
537.244	4.35
537.439	4.34
537.634	4.35
537.828	4.35
538.023	4.36
538.218	4.35
538.413	4.31
538.608	4.35
538.803	4.37
538.997	4.31
539.192	4.39
539.387	4.37
539.582	4.37
539.776	4.29
539.971	4.43
540.166	4.41
540.36	4.3
540.555	4.43
540.75	4.38
540.944	4.41
541.139	4.37
541.334	4.38
541.528	4.4
541.723	4.42
541.917	4.4
542.112	4.35
542.306	4.29
542.501	4.36
542.695	4.36
542.89	4.38
543.084	4.41
543.279	4.43
543.473	4.45
543.668	4.42
543.862	4.32
544.056	4.36
544.251	4.4
544.445	4.44
544.64	4.46
544.834	4.28
545.028	4.23
545.222	4.43
545.417	4.52
545.611	4.4
545.805	4.41
546	4.39
546.194	4.42
546.388	4.45
546.582	4.4
546.776	4.38
546.97	4.44
547.165	4.44
547.359	4.41
547.553	4.4
547.747	4.37
547.941	4.49
548.135	4.38
548.329	4.42
548.523	4.41
548.717	4.38
548.911	4.41
549.105	4.39
549.299	4.47
549.493	4.47
549.687	4.36
549.881	4.46
550.075	4.41
550.269	4.36
550.463	4.45
550.657	4.45
550.85	4.41
551.044	4.41
551.238	4.42
551.432	4.39
551.626	4.46
551.82	4.47
552.013	4.4
552.207	4.49
552.401	4.5
552.594	4.44
552.788	4.35
552.982	4.42
553.176	4.33
553.369	4.5
553.563	4.51
553.756	4.42
553.95	4.47
554.144	4.49
554.337	4.49
554.531	4.35
554.724	4.49
554.918	4.46
555.111	4.47
555.305	4.45
555.498	4.44
555.692	4.52
555.885	4.43
556.079	4.43
556.272	4.44
556.466	4.45
556.659	4.43
556.852	4.45
557.046	4.42
557.239	4.41
557.432	4.44
557.626	4.43
557.819	4.48
558.012	4.49
558.206	4.49
558.399	4.42
558.592	4.46
558.785	4.39
558.979	4.51
559.172	4.46
559.365	4.48
559.558	4.4
559.751	4.4
559.944	4.46
560.138	4.43
560.331	4.45
560.524	4.49
560.717	4.43
560.91	4.44
561.103	4.46
561.296	4.32
561.489	4.48
561.682	4.44
561.875	4.5
562.068	4.51
562.261	4.36
562.454	4.53
562.647	4.43
562.84	4.41
563.032	4.46
563.225	4.41
563.418	4.44
563.611	4.47
563.804	4.49
563.997	4.38
564.19	4.34
564.382	4.49
564.575	4.37
564.768	4.4
564.961	4.49
565.153	4.4
565.346	4.38
565.539	4.47
565.731	4.43
565.924	4.45
566.117	4.53
566.309	4.44
566.502	4.38
566.695	4.4
566.887	4.46
567.08	4.43
567.272	4.52
567.465	4.39
567.657	4.42
567.85	4.38
568.042	4.44
568.235	4.46
568.427	4.38
568.62	4.39
568.812	4.45
569.005	4.46
569.197	4.38
569.389	4.43
569.582	4.39
569.774	4.4
569.966	4.38
570.159	4.31
570.351	4.41
570.543	4.44
570.736	4.39
570.928	4.32
571.12	4.41
571.312	4.36
571.505	4.28
571.697	4.48
571.889	4.36
572.081	4.41
572.273	4.33
572.465	4.4
572.658	4.4
572.85	4.37
573.042	4.37
573.234	4.36
573.426	4.41
573.618	4.31
573.81	4.37
574.002	4.4
574.194	4.43
574.386	4.36
574.578	4.28
574.77	4.34
574.962	4.36
575.154	4.28
575.346	4.3
575.538	4.3
575.729	4.26
575.921	4.35
576.113	4.38
576.305	4.36
576.497	4.4
576.689	4.27
576.88	4.25
577.072	4.33
577.264	4.35
577.456	4.33
577.647	4.24
577.839	4.35
578.031	4.33
578.223	4.31
578.414	4.24
578.606	4.34
578.798	4.34
578.989	4.32
579.181	4.3
579.372	4.31
579.564	4.36
579.755	4.34
579.947	4.22
580.139	4.35
580.33	4.22
580.522	4.29
580.713	4.21
580.905	4.24
581.096	4.31
581.287	4.25
581.479	4.23
581.67	4.3
581.862	4.23
582.053	4.23
582.244	4.14
582.436	4.34
582.627	4.21
582.818	4.24
583.01	4.18
583.201	4.27
583.392	4.24
583.583	4.21
583.775	4.11
583.966	4.15
584.157	4.17
584.348	4.24
584.54	4.12
584.731	4.18
584.922	4.21
585.113	4.11
585.304	4.17
585.495	4.13
585.686	4.23
585.877	4.21
586.068	4.22
586.259	4.2
586.45	4.09
586.641	4.1
586.832	4.17
587.023	4.12
587.214	4.12
587.405	4.16
587.596	4.05
587.787	4.09
587.978	4.1
588.169	4.07
588.36	4.01
588.551	4.13
588.742	4.09
588.932	4.16
589.123	3.97
589.314	4.14
589.505	4.05
589.696	4.08
589.886	4.04
590.077	4.06
590.268	4.03
590.458	3.98
590.649	3.9
590.84	4.04
591.03	4.04
591.221	3.98
591.412	3.9
591.602	4.13
591.793	3.99
591.984	3.96
592.174	4
592.365	4.11
592.555	3.89
592.746	3.93
592.936	3.97
593.127	3.96
593.317	3.97
593.508	3.96
593.698	3.86
593.889	3.9
594.079	3.9
594.269	3.85
594.46	3.86
594.65	3.91
594.84	3.82
595.031	3.83
595.221	3.85
595.411	3.83
595.602	3.89
595.792	3.82
595.982	3.8
596.172	3.9
596.363	3.81
596.553	3.76
596.743	3.8
596.933	3.76
597.123	3.78
597.314	3.72
597.504	3.72
597.694	3.83
597.884	3.75
598.074	3.82
598.264	3.72
598.454	3.77
598.644	3.71
598.834	3.69
599.024	3.62
599.214	3.65
599.404	3.75
599.594	3.69
599.784	3.6
599.974	3.74
600.164	3.71
600.354	3.63
600.544	3.57
600.734	3.66
600.924	3.62
601.114	3.59
601.303	3.62
601.493	3.62
601.683	3.64
601.873	3.61
602.063	3.54
602.252	3.6
602.442	3.48
602.632	3.54
602.821	3.48
603.011	3.62
603.201	3.52
603.39	3.52
603.58	3.43
603.77	3.53
603.959	3.57
604.149	3.49
604.339	3.53
604.528	3.59
604.718	3.5
604.907	3.48
605.097	3.46
605.286	3.37
605.476	3.43
605.665	3.47
605.855	3.4
606.044	3.48
606.234	3.4
606.423	3.39
606.612	3.39
606.802	3.37
606.991	3.37
607.181	3.41
607.37	3.36
607.559	3.24
607.749	3.36
607.938	3.32
608.127	3.33
608.316	3.29
608.506	3.28
608.695	3.32
608.884	3.29
609.073	3.32
609.263	3.35
609.452	3.3
609.641	3.26
609.83	3.2
610.019	3.22
610.208	3.25
610.397	3.22
610.586	3.25
610.775	3.15
610.965	3.14
611.154	3.12
611.343	3.19
611.532	3.11
611.721	3.17
611.91	3.11
612.099	3.15
612.287	3.08
612.476	3.05
612.665	3.14
612.854	3.05
613.043	3.08
613.232	3.09
613.421	3.01
613.61	3.08
613.798	3.08
613.987	3.09
614.176	3.02
614.365	3.01
614.554	3.04
614.742	3.09
614.931	2.93
615.12	3.09
615.309	2.97
615.497	2.96
615.686	2.91
615.875	2.96
616.063	2.89
616.252	2.91
616.44	2.89
616.629	2.9
616.818	2.92
617.006	2.93
617.195	2.88
617.383	2.9
617.572	2.82
617.76	2.84
617.949	2.85
618.137	2.93
618.326	2.86
618.514	2.68
618.703	2.75
618.891	2.87
619.079	2.8
619.268	2.89
619.456	2.73
619.644	2.8
619.833	2.72
620.021	2.7
620.209	2.66
620.398	2.75
620.586	2.67
620.774	2.73
620.962	2.68
621.151	2.77
621.339	2.71
621.527	2.62
621.715	2.63
621.903	2.69
622.092	2.58
622.28	2.71
622.468	2.57
622.656	2.62
622.844	2.58
623.032	2.64
623.22	2.53
623.408	2.64
623.596	2.57
623.784	2.58
623.972	2.53
624.16	2.49
624.348	2.59
624.536	2.57
624.724	2.48
624.912	2.56
625.1	2.54
625.288	2.49
625.476	2.47
625.664	2.56
625.851	2.47
626.039	2.49
626.227	2.48
626.415	2.42
626.603	2.39
626.79	2.5
626.978	2.44
627.166	2.46
627.354	2.34
627.541	2.36
627.729	2.31
627.917	2.45
628.104	2.44
628.292	2.42
628.48	2.37
628.667	2.33
628.855	2.39
629.042	2.37
629.23	2.3
629.418	2.31
629.605	2.28
629.793	2.25
629.98	2.28
630.168	2.25
630.355	2.28
630.543	2.29
630.73	2.19
630.917	2.22
631.105	2.31
631.292	2.23
631.48	2.2
631.667	2.33
631.854	2.19
632.042	2.18
632.229	2.14
632.416	2.2
632.604	2.19
632.791	2.11
632.978	2.15
633.165	2.16
633.353	2.16
633.54	2.19
633.727	2.07
633.914	2.08
634.101	2.04
634.289	2.18
634.476	2.09
634.663	2.04
634.85	2.06
635.037	2.01
635.224	1.96
635.411	2.08
635.598	2.06
635.785	2.06
635.972	1.98
636.159	2.08
636.346	2
636.533	1.99
636.72	1.95
636.907	1.94
637.094	1.98
637.281	1.9
637.468	1.95
637.655	1.92
637.842	1.92
638.029	1.92
638.215	1.89
638.402	1.92
638.589	1.86
638.776	1.87
638.963	1.86
639.149	1.93
639.336	1.99
639.523	1.86
639.709	1.85
639.896	1.84
640.083	1.9
640.27	1.84
640.456	1.77
640.643	1.83
640.829	1.7
641.016	1.76
641.203	1.76
641.389	1.85
641.576	1.82
641.762	1.78
641.949	1.77
642.135	1.8
642.322	1.77
642.508	1.7
642.695	1.71
642.881	1.73
643.068	1.68
643.254	1.68
643.441	1.71
643.627	1.74
643.813	1.62
644	1.68
644.186	1.64
644.372	1.72
644.559	1.69
644.745	1.62
644.931	1.6
645.118	1.63
645.304	1.62
645.49	1.6
645.676	1.57
645.862	1.56
646.049	1.6
646.235	1.6
646.421	1.68
646.607	1.65
646.793	1.54
646.979	1.55
647.165	1.54
647.352	1.57
647.538	1.57
647.724	1.48
647.91	1.5
648.096	1.53
648.282	1.55
648.468	1.54
648.654	1.49
648.84	1.5
649.026	1.49
649.212	1.46
649.397	1.42
649.583	1.43
649.769	1.5
649.955	1.44
650.141	1.49
650.327	1.46
650.513	1.4
650.698	1.47
650.884	1.38
651.07	1.45
651.256	1.39
651.442	1.37
651.627	1.34
651.813	1.43
651.999	1.4
652.184	1.38
652.37	1.35
652.556	1.32
652.741	1.38
652.927	1.26
653.113	1.31
653.298	1.35
653.484	1.34
653.669	1.26
653.855	1.33
654.04	1.32
654.226	1.29
654.412	1.31
654.597	1.18
654.782	1.34
654.968	1.3
655.153	1.26
655.339	1.25
655.524	1.26
655.71	1.27
655.895	1.26
656.08	1.27
656.266	1.31
656.451	1.24
656.636	1.18
656.822	1.26
657.007	1.22
657.192	1.24
657.378	1.15
657.563	1.17
657.748	1.23
657.933	1.2
658.118	1.17
658.304	1.17
658.489	1.27
658.674	1.16
658.859	1.13
659.044	1.19
659.229	1.2
659.414	1.17
659.599	1.13
659.785	1.05
659.97	1.15
660.155	1.1
660.34	1.11
660.525	1.09
660.71	1.08
660.895	1.14
661.08	1.07
661.264	1.06
661.449	1.16
661.634	1.11
661.819	1.1
662.004	1.09
662.189	1
662.374	1.03
662.559	1.03
662.743	0.99
662.928	1.03
663.113	1
663.298	0.97
663.483	1
663.667	1.02
663.852	0.94
664.037	1.05
664.221	0.94
664.406	1.07
664.591	1.02
664.775	1.05
664.96	1.01
665.145	1
665.329	1.03
665.514	0.98
665.698	0.95
665.883	0.92
666.068	1.02
666.252	0.99
666.437	0.88
666.621	0.99
666.806	0.98
666.99	0.92
667.174	0.92
667.359	1.04
667.543	0.94
667.728	0.93
667.912	0.87
668.096	0.92
668.281	0.88
668.465	0.93
668.649	0.87
668.834	0.86
669.018	0.94
669.202	0.93
669.387	0.87
669.571	0.94
669.755	0.85
669.939	0.89
670.124	0.87
670.308	0.94
670.492	0.9
670.676	0.86
670.86	0.85
671.044	0.82
671.228	0.9
671.413	0.81
671.597	0.82
671.781	0.84
671.965	0.84
672.149	0.83
672.333	0.86
672.517	0.8
672.701	0.85
672.885	0.81
673.069	0.72
673.253	0.87
673.437	0.78
673.621	0.79
673.804	0.81
673.988	0.79
674.172	0.83
674.356	0.71
674.54	0.78
674.724	0.85
674.908	0.78
675.091	0.8
675.275	0.77
675.459	0.83
675.643	0.8
675.826	0.81
676.01	0.75
676.194	0.76
676.377	0.79
676.561	0.75
676.745	0.78
676.928	0.78
677.112	0.82
677.296	0.72
677.479	0.71
677.663	0.7
677.846	0.79
678.03	0.72
678.213	0.68
678.397	0.73
678.58	0.7
678.764	0.72
678.947	0.66
679.131	0.64
679.314	0.76
679.498	0.64
679.681	0.72
679.865	0.8
680.048	0.67
680.231	0.66
680.415	0.63
680.598	0.67
680.781	0.67
680.965	0.66
681.148	0.66
681.331	0.62
681.514	0.69
681.698	0.67
681.881	0.64
682.064	0.65
682.247	0.67
682.43	0.63
682.614	0.68
682.797	0.73
682.98	0.71
683.163	0.57
683.346	0.67
683.529	0.64
683.712	0.57
683.895	0.64
684.078	0.57
684.261	0.59
684.444	0.66
684.627	0.65
684.81	0.6
684.993	0.56
685.176	0.68
685.359	0.56
685.542	0.58
685.725	0.71
685.908	0.6
686.091	0.58
686.274	0.6
686.457	0.6
686.639	0.61
686.822	0.6
687.005	0.58
687.188	0.65
687.371	0.71
687.553	0.63
687.736	0.53
687.919	0.7
688.102	0.67
688.284	0.59
688.467	0.57
688.65	0.61
688.832	0.53
689.015	0.55
689.197	0.54
689.38	0.64
689.563	0.67
689.745	0.49
689.928	0.53
690.11	0.52
690.293	0.62
690.475	0.48
690.658	0.59
690.84	0.53
691.023	0.48
691.205	0.51
691.388	0.54
691.57	0.6
691.752	0.59
691.935	0.44
692.117	0.47
692.3	0.56
692.482	0.51
692.664	0.45
692.847	0.49
693.029	0.53
693.211	0.53
693.393	0.45
693.576	0.48
693.758	0.55
693.94	0.47
694.122	0.48
694.304	0.45
694.487	0.46
694.669	0.54
694.851	0.44
695.033	0.46
695.215	0.47
695.397	0.45
695.579	0.46
695.761	0.42
695.943	0.45
696.125	0.53
696.308	0.46
696.49	0.35
696.671	0.58
696.853	0.43
697.035	0.66
697.217	0.48
697.399	0.51
697.581	0.39
697.763	0.46
697.945	0.36
698.127	0.48
698.309	0.51
698.491	0.47
698.672	0.49
698.854	0.49
699.036	0.52
699.218	0.43
699.399	0.5
699.581	0.47
699.763	0.4
699.945	0.38
700.126	0.39
700.308	0.46
700.49	0.44
700.671	0.26
700.853	0.33
701.035	0.4
701.216	0.35
701.398	0.36
701.579	0.37
701.761	0.51
701.943	0.37
702.124	0.34
702.306	0.4
702.487	0.58
702.669	0.42
702.85	0.3
703.031	0.33
703.213	0.55
703.394	0.41
703.576	0.39
703.757	0.49
703.938	0.41
704.12	0.52
704.301	0.42
704.483	0.34
704.664	0.37
704.845	0.48
705.026	0.47
705.208	0.37
705.389	0.39
705.57	0.37
705.751	0.38
705.933	0.42
706.114	0.45
706.295	0.37
706.476	0.31
706.657	0.49
706.838	0.43
707.02	0.46
707.201	0.31
707.382	0.35
707.563	0.36
707.744	0.38
707.925	0.33
708.106	0.34
708.287	0.4
708.468	0.45
708.649	0.36
708.83	0.43
709.011	0.33
709.192	0.45
709.373	0.32
709.554	0.31
709.734	0.46
709.915	0.39
710.096	0.34
710.277	0.27
710.458	0.37
710.639	0.37
710.819	0.29
711	0.31
711.181	0.44
711.362	0.41
711.542	0.35
711.723	0.39
711.904	0.37
712.085	0.35
712.265	0.31
712.446	0.3
712.627	0.32
712.807	0.3
712.988	0.36
713.168	0.22
713.349	0.43
713.53	0.23
713.71	0.25
713.891	0.22
714.071	0.29
714.252	0.29
714.432	0.27
714.613	0.23
714.793	0.31
714.974	0.41
715.154	0.4
715.334	0.26
715.515	0.45
715.695	0.25
715.876	0.26
716.056	0.3
716.236	0.27
716.417	0.32
716.597	0.17
716.777	0.47
716.957	0.31
717.138	0.34
717.318	0.28
717.498	0.23
717.678	0.28
717.859	0.35
718.039	0.22
718.219	0.36
718.399	0.3
718.579	0.27
718.759	0.22
718.939	0.32
719.12	0.36
719.3	0.3
719.48	0.15
719.66	0.14
719.84	0.39
720.02	0.34
720.2	0.17
720.38	0.31
720.56	0.37
720.74	0.19
720.92	0.32
721.1	0.37
721.279	0.34
721.459	0.33
721.639	0.25
721.819	0.31
721.999	0.24
722.179	0.39
722.359	0.23
722.538	0.24
722.718	0.28
722.898	0.25
723.078	0.26
723.257	0.27
723.437	0.29
723.617	0.23
723.797	0.24
723.976	0.31
724.156	0.35
724.336	0.44
724.515	0.38
724.695	0.09
724.874	0.2
725.054	0.3
725.234	0.19
725.413	0.31
725.593	0.3
725.772	0.29
725.952	0.19
726.131	0.3
726.311	0.28
726.49	0.23
726.67	0.19
726.849	0.25
727.028	0.29
727.208	0.24
727.387	0.26
727.567	0.06
727.746	0.17
727.925	0.27
728.105	0.18
728.284	0.2
728.463	0.24
728.643	0.27
728.822	0.21
729.001	0.24
729.18	0.29
729.359	0.31
729.539	0.23
729.718	0.34
729.897	0.3
730.076	0.19
730.255	0.15
730.434	0.27
730.614	0.25
730.793	0.38
730.972	0.21
731.151	0.24
731.33	0.34
731.509	0.26
731.688	0.29
731.867	0.18
732.046	0.1
732.225	0.49
732.404	0.18
732.583	0.13
732.762	0.21
732.941	0.32
733.12	0.29
733.298	0.19
733.477	0.33
733.656	0.26
733.835	0.12
734.014	0.38
734.193	0.22
734.371	0.28
734.55	0.19
734.729	0.11
734.908	0.26
735.086	0.24
735.265	0.26
735.444	0.14
735.623	0.16
735.801	0.09
735.98	0.23
736.159	0.26
736.337	0.26
736.516	0.26
736.694	0.38
736.873	0.22
737.052	0.36
737.23	0.32
737.409	0.24
737.587	0.44
737.766	0.15
737.944	0.16
738.123	0.21
738.301	0.31
738.479	0.24
738.658	0.25
738.836	0.11
739.015	0.22
739.193	0.43
739.371	0.11
739.55	0.21
739.728	0.18
739.906	0.31
740.085	0.33
740.263	0.32
740.441	-0.01
740.62	0.44
740.798	0.3
740.976	0.18
741.154	0.13
741.332	0.46
741.511	0.24
741.689	0.22
741.867	0.32
742.045	0.27
742.223	0.35
742.401	0.05
742.579	0.12
742.757	0.3
742.935	0.13
743.114	0.15
743.292	0.15
743.47	0.25
743.648	0.22
743.826	0.1
744.004	0.34
744.181	0.24
744.359	0.31
744.537	0.3
744.715	0.12
744.893	0.23
745.071	0.25
745.249	0.11
745.427	0.19
745.605	0.17
745.782	0.26
745.96	0.31
746.138	0.32
746.316	0.36
746.493	0.16
746.671	0.26
746.849	0.12
747.027	0.34
747.204	0.1
747.382	0.3
747.56	0.14
747.737	0.26
747.915	0.15
748.093	0.27
748.27	0.09
748.448	0.2
748.625	-0.01
748.803	0.19
748.98	0.17
749.158	0.3
749.335	0.29
749.513	0.1
749.69	0.14
749.868	0.17
750.045	0.19
750.223	0.09
750.4	0.03
750.578	0.33
750.755	0.24
750.932	0.07
751.11	0.37
751.287	0.05
751.464	0.31
751.642	0.17
751.819	0.26
751.996	0.19
752.173	0.2
752.351	0.14
752.528	0.24
752.705	0.23
752.882	0.21
753.06	0.32
753.237	0.24
753.414	0.4
753.591	0.39
753.768	0.18
753.945	0.09
754.122	0.2
754.299	0.26
754.476	0.04
754.654	0.19
754.831	0.27
755.008	0.26
755.185	0.1
755.362	0.11
755.539	0.26
755.716	0.17
755.892	0.23
756.069	0.17
756.246	0.16
756.423	0.18
756.6	0.27
756.777	0.17
756.954	0.27
757.131	0.26
757.307	0.07
757.484	0.01
757.661	0.26
757.838	0.31
758.015	0.02
758.191	0.25
758.368	0.2
758.545	0.42
758.721	0.27
758.898	0.06
759.075	0.19
759.251	0.34
759.428	0.25
759.605	0.07
759.781	0.15
759.958	0.29
760.134	0.19
760.311	0.18
760.488	0.35
760.664	0.39
760.841	0.21
761.017	0.04
761.194	0.17
761.37	0.23
761.547	0.12
761.723	0.09
761.899	0.36
762.076	0.08
762.252	0.2
762.429	0.04
762.605	0.43
762.781	0.27
762.958	0.36
763.134	0.14
763.31	0.03
763.486	0.39
763.663	-0.09
763.839	0.3
764.015	0.12
764.191	0.11
764.368	0.14
764.544	0.08
764.72	0.15
764.896	0.2
765.072	0.18
765.248	0.1
765.425	0.16
765.601	0.26
765.777	0.22
765.953	-0.13
766.129	0.04
766.305	0.18
766.481	0.28
766.657	0.22
766.833	0.41
767.009	-0.03
767.185	-0.01
767.361	0.11
767.537	0.1
767.713	0.25
767.889	0.09
768.065	0.19
768.24	0.02
768.416	0.27
768.592	0.16
768.768	0.03
768.944	0.25
769.12	0.04
769.295	0.09
769.471	0.2
769.647	0.25
769.823	0.39
769.998	0.09
770.174	-0.11
770.35	0.47
770.525	0.53
770.701	0.25
770.877	0.16
771.052	0.13
771.228	0.3
771.403	0.26
771.579	0.29
771.755	0.55
771.93	0.12
772.106	0.1
772.281	0.03
772.457	0.19
772.632	0.33
772.808	-0.1
772.983	0.11
773.159	-0.09
773.334	0.4
773.509	0.08
773.685	0.06
773.86	0.57
774.036	0.35
774.211	0.19
774.386	0.11
774.562	0.31
774.737	0.17
774.912	0.05
775.087	0.33
775.263	0.23
775.438	0.2
775.613	0.03
775.788	0.11
775.964	0.31
776.139	0.3
776.314	-0.03
776.489	0.32
776.664	0.37
776.839	0.15
777.014	0.39
777.19	0.22
777.365	0.52
777.54	0.41
777.715	0.16
777.89	0.13
778.065	0.01
778.24	0.25
778.415	0.18
778.59	0.05
778.765	0.22
778.94	0.25
779.115	0.16
779.289	0.15
779.464	0.05
779.639	0.16
779.814	-0
779.989	-0.02
780.164	0.37
780.339	0.22
780.513	0.1
780.688	0.03
780.863	0.12
781.038	0.33
781.212	-0.02
781.387	0.24
781.562	0.55
781.737	0.19
781.911	0.47
782.086	0.05
782.261	0.2
782.435	0.23
782.61	0.15
782.784	0.07
782.959	0.52
783.134	0.08
783.308	-0.01
783.483	0.07
783.657	0.55
783.832	0.41
784.006	0.02
784.181	0.05
784.355	0.41
784.53	0.02
784.704	0.03
784.878	0.38
785.053	0.32
785.227	0.47
785.402	0.65
785.576	-0.06
785.75	0.11
785.925	0.12
786.099	0.13
786.273	0.23
786.448	0.36
786.622	0.33
786.796	0.09
786.97	0.08
787.145	0.72
787.319	-0.02
787.493	0.18
787.667	-0.21
787.841	0.28
788.015	0.42
788.19	0.24
788.364	0.47
788.538	0.43
788.712	0.3
788.886	0.03
789.06	0.45
789.234	0.4
789.408	-0.17
789.582	0.22
789.756	0.1
789.93	-0.08
790.104	0.16
790.278	-0.03
790.452	-0.06
790.626	0.27
790.8	0.18
790.973	0.44
791.147	0.6
791.321	0.62
791.495	0.25
791.669	0.31
791.843	0.31
792.016	0.27
792.19	0.88
792.364	-0.08
792.538	0.79
792.711	0.55
792.885	0.28
793.059	-0.09
793.233	-0.03
793.406	0.37
793.58	0.29
793.754	0.35
793.927	0.29
794.101	0.66
794.274	0.13
794.448	0.48
794.622	0.19
794.795	0.63
794.969	0.12
795.142	0.63
795.316	0.04
795.489	0.24
795.663	0.74
795.836	0.38
796.009	-0.17
796.183	0.62
796.356	0.54
796.53	0.21
796.703	-0.07
796.876	0.68
797.05	0.12
797.223	0.06
797.396	0.43
797.57	0.23
797.743	0.47
797.916	0.44
798.09	0.35
798.263	0.47
798.436	0.36
798.609	0.31
798.782	-0.24
798.956	0.49
799.129	0.35
799.302	0.28
799.475	0.12
799.648	0.05
799.821	0.01
799.994	0.2
800.167	-0.17
800.34	0.46
800.514	0.46
800.687	0.13
800.86	-0.02
801.033	0.33
801.206	0.48
801.379	0.13
801.551	0.63
801.724	0.39
801.897	0.55
802.07	0.15
802.243	-0.49
802.416	0.25
802.589	0.22
802.762	0.2
802.935	0.37
803.107	0.41
803.28	0.49
803.453	0.64
803.626	-0.03
803.798	0.5
803.971	0.27
804.144	0.39
804.317	0.3
804.489	0.38
804.662	0.17
804.835	0.03
805.007	0.17
805.18	0.55
805.353	0.48
805.525	0.34
805.698	0.3
805.87	0.49
806.043	0.84
806.215	0.18
806.388	0.11
806.56	0.08
806.733	0.75
806.905	0.52
807.078	-0.22
807.25	-0.06
807.423	0.49
807.595	0.31
807.768	0.32
807.94	0.49
808.112	0.33
808.285	0.19
808.457	0.08
808.629	0.08
808.802	0.61
808.974	0.11
809.146	0.22
809.318	0.02
809.491	0.52
809.663	0.36
809.835	0.12
810.007	0.52
810.18	0.19
810.352	-0.07
810.524	0.14
810.696	0.33
810.868	0.33
811.04	-0.1
811.212	0.34
811.384	0.45
811.556	0.62
811.728	0.16
811.901	1.1
812.073	-0.04
812.245	0.34
812.417	0.5
812.589	-0.31
812.76	0.64
812.932	0.47
813.104	0.37
813.276	0.07
813.448	0.83
813.62	0.47
813.792	0.27
813.964	0.11
814.136	0.41
814.307	0.12
814.479	-0.05
814.651	-0.15
814.823	0.95
814.995	0.3
815.166	0.44
815.338	0.02
815.51	-0.02
815.681	1.33
815.853	0.37
816.025	-0.03
816.196	0.83
816.368	0.56
816.54	-0.17
816.711	-0.1
816.883	0.85
817.054	1
817.226	-0.37
817.398	0.79
817.569	0
817.741	0.16
817.912	0.12
818.084	0.12
818.255	0.74
818.426	-0.21
818.598	0.28
818.769	0
818.941	0.88
819.112	1.15
819.283	0.3
819.455	-0.03
819.626	0.2
819.798	0.82
819.969	0.22
820.14	0.14
820.311	0.44
820.483	0.27
820.654	0.89
820.825	0.13
820.996	0.32
821.168	0.1
821.339	0.32
821.51	-0.29
821.681	0.25
821.852	0.13
822.023	-0.06
822.195	-0.5
822.366	0.94
822.537	1.09
822.708	0.11
822.879	0
823.05	0.93
823.221	0.08
823.392	0.42
823.563	0.42
823.734	0.26
823.905	-0.1
824.076	0.09
824.247	-0.1
824.418	-0.1
824.589	0.76
824.759	0.23
824.93	0.46
825.101	-0.32
825.272	1
825.443	0.81
825.614	1.39
825.784	-0.79
825.955	1.02
826.126	0.8
826.297	0.49
826.467	0.26
826.638	1.41
826.809	-0.53
826.98	0.43
827.15	0.66
827.321	0.35
827.492	1.24
827.662	0.11
827.833	1.53
828.003	0.67
828.174	-0.63
828.345	-0.42
828.515	0.91
828.686	0.67
828.856	0.33
829.027	0.64
829.197	0.34
829.368	0.35
829.538	-0.04
829.709	0.45
829.879	0.71
830.049	0.58
830.22	0.01
830.39	0.57
830.56	0.46
830.731	0.21
830.901	-0.49
831.072	0.29
831.242	0.4
831.412	0.35
831.582	0.85
831.753	-0.56
831.923	0.99
832.093	1.02
832.263	0.56
832.434	-0.15
832.604	-0.08
832.774	0.62
832.944	0.2
833.114	-0.15
833.284	0.78
833.454	-0.49
833.624	-0.17
833.795	0.14
833.965	1.44
834.135	0.93
834.305	-0.62
834.475	-0.14
834.645	0.35
834.815	0.29
834.985	-0.14
835.155	0.01
835.325	0.45
835.494	0.51
835.664	0.51
835.834	0.27
836.004	0.71
836.174	1.2
836.344	0.36
836.514	-1.07
836.684	0.07
836.853	0.78
837.023	0.1
837.193	0.42
837.363	1.17
837.532	1.56
837.702	0.1
837.872	-0.59
838.041	0.98
838.211	2.14
838.381	-0.17
838.55	0.07
838.72	2.37
838.89	1.42
839.059	0.15
839.229	0.23
839.398	1.77
839.568	0.87
839.738	0.66
839.907	1.89
840.077	0.98
840.246	-0.12
840.416	0.02
840.585	0.12
840.755	1.98
840.924	1.49
841.093	-0.31
841.263	0.07
841.432	0.98
841.602	-0.48
841.771	0.44
841.94	-0.21
842.11	2.63
842.279	1.82
842.448	-0.41
842.617	-0.31
842.787	1.5
842.956	-0.22
843.125	0.37
843.294	0.49
843.464	2.18
843.633	0.56
843.802	-0.25
843.971	-0.15
844.14	1.73
844.309	2.47
844.479	-0.75
844.648	-0.29
844.817	0
844.986	1.38
845.155	0.77
845.324	0.01
845.493	0.08
845.662	-0.35
845.831	1.1
846	0.85
846.169	0.45
846.338	2.23
846.507	1.34
846.676	1.18
846.844	-0.31
847.013	1.44
847.182	0.15
847.351	0.19
847.52	0.27
847.689	0.64
847.858	0.98
848.026	-0.07
848.195	0.39
848.364	-0.3
848.533	0.23
848.701	-0.65
848.87	1.4
849.039	2.04
849.207	1.52
849.376	1.47
849.545	1.48
849.713	0.07
849.882	0.49
850.051	1.06
850.219	0.61
850.388	0.94
850.556	0.3
850.725	0.56
850.893	1.44
851.062	0.69
851.23	0.9
851.399	-0.71
851.567	1.78
851.736	0.09
851.904	-0.19
852.073	1.1
852.241	1.99
852.41	0.08
852.578	0.23
852.746	0.4
852.915	0.9
853.083	0.94
853.251	-0.07
853.42	0.13
853.588	0.69
853.756	2.46
853.924	1.12
854.093	0.29
854.261	0.04
854.429	-0.76
854.597	0.43
854.765	-0.38
854.934	1.88
855.102	3.2
855.27	0.24
855.438	1.32
855.606	1.71
855.774	1.85
855.942	-0.92
856.11	-1.48
856.278	0.23
856.446	1.74
856.614	0.51
856.782	0.36
856.95	2.57
857.118	1.52
857.286	2.5
857.454	-0.65
857.622	0.62
857.79	1.86
857.958	0.1
858.126	0.13
858.294	-1.86
858.462	0.23
858.629	-0.25
858.797	0.35
858.965	1.18
859.133	-0.17
859.301	0.67
859.468	1.13
859.636	-0.9
859.804	1.79
859.971	1.77
860.139	0.72
860.307	1.08
860.474	1.29
860.642	0.87
860.81	0.7
860.977	0.01
861.145	0.82
861.313	0.93
861.48	1.36
861.648	2.03
861.815	0.27
861.983	-0.43
862.15	0.92
862.318	1.7
862.485	2.29
862.653	-0.65
862.82	0.64
862.988	2.76
863.155	2.88
863.322	-0.07
863.49	-0.54
863.657	1.31
863.824	2.52
863.992	1.2
864.159	1.14
864.326	2.89
864.494	0.31
864.661	3.5
864.828	0.5
864.996	1.86
865.163	2.08
865.33	0.75
865.497	-1.44
865.664	0.29
865.832	-1.69
865.999	-0.61
866.166	-0.34
866.333	0.02
866.5	-0.94
866.667	0.65
866.834	0.3
867.001	1.97
867.168	-0.82
867.335	0.71
867.502	-1.88
867.669	1.66
867.836	3.78
868.003	-0.01
868.17	1.16
868.337	-1.76
868.504	3.97
868.671	-1
868.838	-0.9
869.005	1.42
869.172	2.01
869.339	1.7
869.505	0.11
869.672	1.24
869.839	2.21
870.006	-0.74
870.173	-0.79
870.339	0.9
870.506	3.95
870.673	-1.04
870.84	1.31
871.006	1.98
871.173	0.16
871.34	1.86
871.506	-0.38
871.673	1.42
871.839	-0.6
872.006	1.97
872.173	0.96
872.339	1.64
872.506	1.92
872.672	1.52
872.839	-0.76
873.005	0.04
873.172	4.07
873.338	1.74
873.505	-0.15
873.671	1.5
873.838	2.19
874.004	-0.81
874.171	-0.3
874.337	1.56
874.503	2.05
874.67	0.66
874.836	0.5
875.002	2.91
875.169	1.36
875.335	0.7
875.501	-0.73
875.668	1.92
875.834	-0.03
876	0.48
876.166	1.45
876.332	1.3
876.499	6.97
876.665	0.38
876.831	0
876.997	4.38
877.163	2.65
877.329	0.33
877.495	1.43
877.662	1.91
877.828	1.69
877.994	1.86
878.16	-2.73
878.326	-1.05
878.492	1.28
878.658	-1.07
878.824	2.1
878.99	1.38
879.156	-0.69
879.322	3.18
879.487	1.14
879.653	2.96
879.819	1.25
879.985	-0.87
880.151	1.57
880.317	0.55
880.483	2.08
880.648	1.8
880.814	-1.23
880.98	0.51
881.146	-2.66
881.312	1.6
881.477	0.77
881.643	1.62
881.809	3.41
881.974	1.85
882.14	-1.82
882.306	-1.18
882.471	6.09
882.637	-0.49
882.803	1.65
882.968	3.93
883.134	5.43
883.299	-0.74
883.465	0.3
883.63	2.67
883.796	3.19
883.961	2.36
884.127	1.06
884.292	-1.24
884.458	-0.37
884.623	-0.37
