Data from Apollo_Calib_20240827__AbsoluteIrradiance__738__11-27-00-700.txt Node

Date: Wed Aug 28 11:27:00 BST 2024
User: biology
Spectrometer: FLMT08252
Trigger mode: 0
Integration Time (sec): 5.000000E-1
Scans to average: 5
Electric dark correction enabled: true
Nonlinearity correction enabled: false
Boxcar width: 0
XAxis mode: Wavelengths
Number of Pixels in Spectrum: 3648
>>>>>Begin Spectral Data<<<<<
179.588	-0
179.809	-0
180.03	-0
180.251	-0
180.473	-0
180.694	0
180.915	0
181.136	-0
181.357	0
181.578	-0
181.799	-0
182.02	-0
182.241	0
182.462	-0
182.683	0
182.904	-0
183.125	-0
183.346	0
183.567	0
183.788	0
184.009	-0
184.23	0
184.451	0
184.672	0
184.892	0
185.113	0
185.334	0
185.555	0
185.776	0
185.996	0
186.217	0
186.438	0
186.659	0
186.879	0
187.1	0
187.321	0
187.541	0
187.762	0
187.983	0
188.203	0
188.424	0
188.644	0
188.865	0
189.086	0
189.306	0
189.527	0
189.747	0
189.968	0
190.188	0
190.409	0
190.629	0
190.849	0
191.07	0
191.29	0
191.511	0
191.731	0
191.951	-0
192.172	0
192.392	0
192.612	0
192.833	0
193.053	0
193.273	0
193.493	0
193.714	0
193.934	0
194.154	0
194.374	0
194.594	0
194.815	0
195.035	0
195.255	0
195.475	0
195.695	0
195.915	0
196.135	0
196.355	0
196.575	0
196.795	0
197.015	0
197.235	0
197.455	0
197.675	0
197.895	0
198.115	0
198.335	0
198.555	0
198.775	0
198.995	0
199.214	0
199.434	0
199.654	0
199.874	0
200.094	2.13
200.313	1.12
200.533	1.36
200.753	0.3
200.973	1.85
201.192	1.75
201.412	0.5
201.632	0.66
201.851	2.26
202.071	0.67
202.291	0.65
202.51	0.21
202.73	1.31
202.95	0.96
203.169	0.68
203.389	0.89
203.608	1.14
203.828	1.1
204.047	0.85
204.267	1.02
204.486	1.07
204.706	1.22
204.925	0.77
205.145	0.75
205.364	1.3
205.583	1.56
205.803	0.59
206.022	0.36
206.242	0.56
206.461	0.78
206.68	0.31
206.9	0.87
207.119	1.31
207.338	1.1
207.557	0.61
207.777	0.29
207.996	0.43
208.215	1.03
208.434	0.54
208.654	-0.1
208.873	0.61
209.092	1.48
209.311	0.38
209.53	0.25
209.749	0.51
209.968	0.56
210.187	0.65
210.407	0.28
210.626	0.59
210.845	0.7
211.064	0.46
211.283	0.3
211.502	0.91
211.721	0.6
211.94	0.46
212.159	0.69
212.377	0.79
212.596	0.95
212.815	0.68
213.034	0.69
213.253	0.92
213.472	0.72
213.691	0.5
213.91	0.31
214.128	0.32
214.347	0.82
214.566	-0.03
214.785	0.2
215.003	0.7
215.222	0.65
215.441	0.49
215.66	0.16
215.878	0.58
216.097	0.61
216.316	0.23
216.534	0.49
216.753	0.35
216.972	0.52
217.19	0.44
217.409	0.34
217.627	0.22
217.846	0.41
218.064	0.53
218.283	0.12
218.501	0.85
218.72	0.51
218.938	0.27
219.157	0.38
219.375	0.61
219.594	0.62
219.812	0.24
220.031	0.19
220.249	0.82
220.467	0.62
220.686	0.23
220.904	0.26
221.122	0.17
221.341	0.9
221.559	0.47
221.777	0.19
221.995	0.38
222.214	0.46
222.432	0.23
222.65	0.28
222.868	0.37
223.086	0.37
223.305	0.49
223.523	0.32
223.741	0.7
223.959	0.19
224.177	0.07
224.395	0.31
224.613	0.43
224.831	0.62
225.049	0.18
225.267	0.13
225.485	0.47
225.703	0.36
225.921	0.24
226.139	0.11
226.357	0.52
226.575	0.44
226.793	0.3
227.011	1.05
227.229	0.26
227.447	0.58
227.665	0.21
227.883	0.14
228.1	0.26
228.318	0.3
228.536	-0.02
228.754	0.14
228.972	0.39
229.189	0.37
229.407	0.21
229.625	0.26
229.843	0.46
230.06	0.4
230.278	0.27
230.496	0.31
230.713	0.3
230.931	0.39
231.149	0.27
231.366	0.08
231.584	0.36
231.801	0.52
232.019	0.21
232.236	0.07
232.454	0.26
232.671	0.46
232.889	0.19
233.106	0.03
233.324	0.27
233.541	0.35
233.759	0.17
233.976	0.18
234.194	0.28
234.411	0.23
234.628	0.09
234.846	0.28
235.063	0.26
235.28	0.23
235.498	0.35
235.715	0.15
235.932	0.53
236.149	0.38
236.367	0.18
236.584	0.3
236.801	0.19
237.018	0.35
237.236	0.21
237.453	0.02
237.67	0.43
237.887	0.15
238.104	0.2
238.321	0.08
238.538	0.2
238.755	0.42
238.973	0.05
239.19	0.25
239.407	0.41
239.624	0.38
239.841	0.09
240.058	0.09
240.275	0.29
240.492	0.31
240.709	0.28
240.925	0.16
241.142	0.25
241.359	0.1
241.576	0.15
241.793	0.18
242.01	0.23
242.227	0.33
242.444	0.33
242.66	0.28
242.877	0.27
243.094	0.12
243.311	0.19
243.527	0.19
243.744	0.28
243.961	0.3
244.178	0.19
244.394	0.25
244.611	0.25
244.828	0.33
245.044	0.11
245.261	0.16
245.477	0.28
245.694	0.41
245.911	0.16
246.127	0.32
246.344	0.45
246.56	0.37
246.777	0.16
246.993	0.24
247.21	0.26
247.426	0.3
247.643	0.17
247.859	0.07
248.076	0.18
248.292	0.45
248.508	0.18
248.725	0.22
248.941	0.31
249.157	0.31
249.374	0.13
249.59	0.2
249.806	0.25
250.023	0.29
250.239	0.12
250.455	0.11
250.671	0.25
250.888	0.31
251.104	0.26
251.32	0.14
251.536	0.2
251.752	0.18
251.969	0.22
252.185	0.22
252.401	0.36
252.617	0.2
252.833	0.08
253.049	0.23
253.265	0.21
253.481	0.18
253.697	0.14
253.913	0.11
254.129	0.2
254.345	0.16
254.561	0.13
254.777	0.2
254.993	0.23
255.209	0.26
255.425	0.1
255.641	0.11
255.857	0.29
256.073	0.25
256.288	0.05
256.504	0.15
256.72	0.2
256.936	0.34
257.152	0.14
257.367	0.14
257.583	0.23
257.799	0.22
258.015	0.16
258.23	0.15
258.446	0.37
258.662	0.26
258.877	0.12
259.093	0.11
259.309	0.18
259.524	0.27
259.74	0.1
259.955	0.06
260.171	0.25
260.387	0.14
260.602	0.26
260.818	0.31
261.033	0.09
261.249	0.13
261.464	0.19
261.68	0.11
261.895	0.25
262.11	0.35
262.326	0.12
262.541	0.06
262.757	0.24
262.972	0.18
263.187	0.24
263.403	0.19
263.618	0.24
263.833	0.19
264.049	0.08
264.264	0.14
264.479	0.12
264.694	0.29
264.91	0.05
265.125	0.18
265.34	0.26
265.555	0.27
265.77	0.19
265.986	0.14
266.201	0.2
266.416	0.26
266.631	0.16
266.846	0.18
267.061	0.22
267.276	0.25
267.491	0.03
267.706	0.15
267.921	0.17
268.136	0.21
268.351	0.19
268.566	0.1
268.781	0.3
268.996	0.24
269.211	0.14
269.426	0.15
269.641	0.13
269.856	0.24
270.071	0.15
270.285	0.06
270.5	0.25
270.715	0.27
270.93	0.17
271.145	0.13
271.359	0.26
271.574	0.13
271.789	0.12
272.004	0.15
272.218	0.19
272.433	0.19
272.648	0.14
272.862	0.26
273.077	0.19
273.292	0.22
273.506	0.12
273.721	0.15
273.936	0.26
274.15	0.3
274.365	0.16
274.579	0.23
274.794	0.23
275.008	0.26
275.223	0.09
275.437	0.17
275.652	0.22
275.866	0.16
276.081	0.13
276.295	0.22
276.509	0.22
276.724	0.23
276.938	0.21
277.153	0.23
277.367	0.25
277.581	0.14
277.796	0.13
278.01	0.13
278.224	0.23
278.438	0.25
278.653	0.1
278.867	0.11
279.081	0.2
279.295	0.13
279.51	0.12
279.724	0.07
279.938	0.2
280.152	0.13
280.366	0.12
280.58	0.16
280.794	0.26
281.008	0.19
281.222	0.18
281.437	0.25
281.651	0.24
281.865	0.24
282.079	0.16
282.293	0.05
282.507	0.15
282.721	0.14
282.935	0.14
283.148	0.08
283.362	0.06
283.576	0.12
283.79	0.12
284.004	0.07
284.218	0.21
284.432	0.13
284.646	0.18
284.859	0.13
285.073	0.14
285.287	0.18
285.501	0.15
285.714	0.09
285.928	0.17
286.142	0.2
286.356	0.14
286.569	0.08
286.783	0.19
286.997	0.27
287.21	0.12
287.424	0.14
287.637	0.12
287.851	0.12
288.065	0.18
288.278	0.1
288.492	0.17
288.705	0.18
288.919	0.15
289.132	0.07
289.346	0.19
289.559	0.04
289.773	0.13
289.986	0.1
290.2	0.14
290.413	0.2
290.626	0.12
290.84	0.13
291.053	0.13
291.267	0.27
291.48	0.11
291.693	0.17
291.906	0.06
292.12	0.11
292.333	0.09
292.546	0.12
292.76	0.21
292.973	0.17
293.186	0.19
293.399	0.12
293.612	0.19
293.826	0.13
294.039	0.16
294.252	0.11
294.465	0.17
294.678	0.15
294.891	0.13
295.104	0.09
295.317	0.12
295.53	0.18
295.743	0.11
295.956	0.15
296.169	0.22
296.382	0.17
296.595	0.17
296.808	0.09
297.021	0.24
297.234	0.12
297.447	0.13
297.66	0.13
297.873	0.2
298.086	0.18
298.299	0.09
298.511	0.09
298.724	0.11
298.937	0.09
299.15	0.13
299.363	0.1
299.575	0.16
299.788	0.15
300.001	0.14
300.213	0.11
300.426	0.11
300.639	0.14
300.852	0.07
301.064	0.19
301.277	0.22
301.489	0.16
301.702	0.13
301.915	0.09
302.127	0.08
302.34	0.14
302.552	0.14
302.765	0.1
302.977	0.16
303.19	0.07
303.402	0.13
303.615	0.12
303.827	0.13
304.04	0.12
304.252	0.17
304.464	0.13
304.677	0.26
304.889	0.17
305.102	0.1
305.314	0.08
305.526	0.15
305.739	0.14
305.951	0.08
306.163	0.1
306.375	0.25
306.588	0.13
306.8	0.08
307.012	0.06
307.224	0.14
307.436	0.18
307.649	0.06
307.861	0.15
308.073	0.19
308.285	0.11
308.497	0.1
308.709	0.1
308.921	0.12
309.133	0.24
309.346	0.14
309.558	0.08
309.77	0.19
309.982	0.23
310.194	0.17
310.406	0.1
310.617	0.2
310.829	0.15
311.041	0.15
311.253	0.07
311.465	0.11
311.677	0.11
311.889	0.09
312.101	0.09
312.313	0.14
312.524	0.23
312.736	0.06
312.948	0.14
313.16	0.24
313.372	0.18
313.583	0.15
313.795	0.13
314.007	0.11
314.218	0.15
314.43	0.15
314.642	0.12
314.853	0.02
315.065	0.17
315.277	0.1
315.488	0.15
315.7	0.13
315.912	0.13
316.123	0.11
316.335	0.13
316.546	0.24
316.758	0.1
316.969	0.12
317.181	0.1
317.392	0.15
317.604	0.15
317.815	0.11
318.026	0.09
318.238	0.09
318.449	0.15
318.661	0.05
318.872	0.05
319.083	0.11
319.295	0.14
319.506	0.1
319.717	0.14
319.929	0.17
320.14	0.17
320.351	0.15
320.562	0.06
320.774	0.12
320.985	0.13
321.196	0.07
321.407	0.02
321.618	0.17
321.829	0.13
322.041	0.13
322.252	0.1
322.463	0.13
322.674	0.17
322.885	0.07
323.096	0.13
323.307	0.13
323.518	0.15
323.729	0.11
323.94	0.1
324.151	0.13
324.362	0.12
324.573	0.15
324.784	0.09
324.995	0.2
325.206	0.16
325.417	0.12
325.628	0.08
325.838	0.16
326.049	0.17
326.26	0.14
326.471	0.12
326.682	0.15
326.892	0.16
327.103	0.04
327.314	0.08
327.525	0.2
327.735	0.14
327.946	0.12
328.157	0.07
328.368	0.2
328.578	0.13
328.789	0.15
328.999	0.14
329.21	0.13
329.421	0.15
329.631	0.06
329.842	0.07
330.052	0.15
330.263	0.16
330.473	0.17
330.684	0.11
330.894	0.14
331.105	0.16
331.315	0.09
331.526	0.1
331.736	0.2
331.947	0.15
332.157	0.14
332.367	0.05
332.578	0.17
332.788	0.21
332.999	0.15
333.209	0.13
333.419	0.07
333.629	0.14
333.84	0.16
334.05	0.11
334.26	0.22
334.47	0.13
334.681	0.19
334.891	0.09
335.101	0.14
335.311	0.25
335.521	0.15
335.732	0.05
335.942	0.17
336.152	0.14
336.362	0.13
336.572	0.14
336.782	0.18
336.992	0.1
337.202	0.11
337.412	0.11
337.622	0.12
337.832	0.14
338.042	0.13
338.252	0.12
338.462	0.11
338.672	0.17
338.882	0.13
339.092	0.13
339.302	0.2
339.511	0.2
339.721	0.14
339.931	0.05
340.141	0.2
340.351	0.2
340.561	0.11
340.77	0.14
340.98	0.15
341.19	0.16
341.4	0.11
341.609	0.07
341.819	0.13
342.029	0.06
342.238	0.11
342.448	0.09
342.658	0.15
342.867	0.12
343.077	0.1
343.286	0.14
343.496	0.16
343.706	0.18
343.915	0.08
344.125	0.12
344.334	0.2
344.544	0.09
344.753	0.12
344.963	0.09
345.172	0.1
345.381	0.09
345.591	0.08
345.8	0.13
346.01	0.16
346.219	0.12
346.428	0.02
346.638	0.13
346.847	0.16
347.056	0.23
347.266	0.07
347.475	0.13
347.684	0.15
347.893	0.14
348.103	0.12
348.312	0.08
348.521	0.12
348.73	0.14
348.94	0.17
349.149	0.09
349.358	0.09
349.567	0.13
349.776	0.06
349.985	0.12
350.194	0.16
350.403	0.21
350.612	0.03
350.821	0.12
351.03	0.13
351.239	0.1
351.448	0.12
351.657	0.1
351.866	0.19
352.075	0.13
352.284	0.14
352.493	0.04
352.702	0.17
352.911	0.12
353.12	0.14
353.329	0.16
353.538	0.17
353.746	0.12
353.955	0.09
354.164	0.14
354.373	0.13
354.582	0.12
354.79	0.12
354.999	0.16
355.208	0.11
355.416	0.22
355.625	0.07
355.834	0.11
356.042	0.15
356.251	0.12
356.46	0.07
356.668	0.15
356.877	0.2
357.085	0.16
357.294	0.06
357.503	0.15
357.711	0.12
357.92	0.23
358.128	0.14
358.337	0.07
358.545	0.14
358.754	0.07
358.962	0.12
359.17	0.1
359.379	0.19
359.587	0.16
359.796	0.12
360.004	0.16
360.212	0.14
360.421	0.18
360.629	0.11
360.837	0.12
361.046	0.18
361.254	0.25
361.462	0.1
361.67	0.11
361.879	0.12
362.087	0.18
362.295	0.08
362.503	0.09
362.711	0.12
362.92	0.12
363.128	0.11
363.336	0.06
363.544	0.06
363.752	0.11
363.96	0.12
364.168	0.09
364.376	0.09
364.584	0.13
364.792	0.13
365	0.1
365.208	0.11
365.416	0.17
365.624	0.15
365.832	0.11
366.04	0.16
366.248	0.16
366.456	0.17
366.664	0.14
366.872	0.14
367.079	0.13
367.287	0.11
367.495	0.14
367.703	0.14
367.911	0.11
368.118	0.11
368.326	0.14
368.534	0.1
368.742	0.17
368.949	0.04
369.157	0.13
369.365	0.16
369.572	0.07
369.78	0.07
369.988	0.2
370.195	0.15
370.403	0.13
370.61	0.1
370.818	0.14
371.026	0.2
371.233	0.08
371.441	0.16
371.648	0.1
371.856	0.1
372.063	0.18
372.271	0.09
372.478	0.14
372.685	0.11
372.893	0.13
373.1	0.08
373.308	0.05
373.515	0.22
373.722	0.17
373.93	0.11
374.137	0.14
374.344	0.2
374.552	0.14
374.759	0.14
374.966	0.13
375.173	0.14
375.381	0.14
375.588	0.14
375.795	0.07
376.002	0.13
376.209	0.1
376.417	0.12
376.624	0.16
376.831	0.13
377.038	0.13
377.245	0.06
377.452	0.08
377.659	0.12
377.866	0.12
378.073	0.09
378.28	0.11
378.487	0.19
378.694	0.16
378.901	0.17
379.108	0.12
379.315	0.14
379.522	0.21
379.729	0.13
379.936	0.14
380.143	0.14
380.35	0.16
380.557	0.09
380.763	0.13
380.97	0.17
381.177	0.16
381.384	0.13
381.591	0.15
381.797	0.13
382.004	0.18
382.211	0.17
382.418	0.14
382.624	0.18
382.831	0.15
383.038	0.08
383.244	0.14
383.451	0.13
383.658	0.17
383.864	0.15
384.071	0.1
384.277	0.22
384.484	0.13
384.69	0.18
384.897	0.14
385.103	0.14
385.31	0.13
385.516	0.13
385.723	0.08
385.929	0.12
386.136	0.13
386.342	0.15
386.549	0.09
386.755	0.2
386.961	0.16
387.168	0.09
387.374	0.16
387.58	0.18
387.787	0.14
387.993	0.18
388.199	0.13
388.406	0.09
388.612	0.14
388.818	0.1
389.024	0.14
389.231	0.15
389.437	0.22
389.643	0.21
389.849	0.14
390.055	0.12
390.261	0.23
390.467	0.14
390.674	0.14
390.88	0.13
391.086	0.15
391.292	0.09
391.498	0.12
391.704	0.17
391.91	0.16
392.116	0.1
392.322	0.1
392.528	0.17
392.734	0.12
392.94	0.11
393.146	0.18
393.352	0.12
393.557	0.15
393.763	0.14
393.969	0.19
394.175	0.14
394.381	0.17
394.587	0.11
394.792	0.12
394.998	0.19
395.204	0.24
395.41	0.16
395.615	0.16
395.821	0.18
396.027	0.17
396.233	0.13
396.438	0.19
396.644	0.15
396.85	0.2
397.055	0.15
397.261	0.17
397.466	0.16
397.672	0.18
397.878	0.17
398.083	0.19
398.289	0.17
398.494	0.22
398.7	0.15
398.905	0.14
399.111	0.24
399.316	0.09
399.522	0.15
399.727	0.15
399.932	0.16
400.138	0.15
400.343	0.2
400.549	0.2
400.754	0.16
400.959	0.19
401.165	0.14
401.37	0.2
401.575	0.29
401.78	0.18
401.986	0.18
402.191	0.14
402.396	0.15
402.601	0.25
402.807	0.17
403.012	0.2
403.217	0.18
403.422	0.17
403.627	0.23
403.832	0.16
404.037	0.21
404.243	0.17
404.448	0.12
404.653	0.2
404.858	0.23
405.063	0.23
405.268	0.12
405.473	0.19
405.678	0.24
405.883	0.41
406.088	0.25
406.293	0.16
406.498	0.23
406.703	0.26
406.907	0.27
407.112	0.18
407.317	0.23
407.522	0.23
407.727	0.2
407.932	0.3
408.136	0.33
408.341	0.25
408.546	0.28
408.751	0.22
408.956	0.25
409.16	0.3
409.365	0.25
409.57	0.27
409.774	0.3
409.979	0.37
410.184	0.32
410.388	0.26
410.593	0.42
410.798	0.34
411.002	0.31
411.207	0.33
411.411	0.41
411.616	0.33
411.82	0.38
412.025	0.38
412.229	0.35
412.434	0.5
412.638	0.43
412.843	0.41
413.047	0.46
413.252	0.4
413.456	0.42
413.66	0.54
413.865	0.47
414.069	0.58
414.273	0.53
414.478	0.47
414.682	0.53
414.886	0.55
415.091	0.52
415.295	0.53
415.499	0.67
415.703	0.65
415.908	0.69
416.112	0.6
416.316	0.76
416.52	0.7
416.724	0.71
416.929	0.73
417.133	0.98
417.337	0.81
417.541	0.84
417.745	0.88
417.949	0.99
418.153	0.97
418.357	0.89
418.561	1.12
418.765	1.03
418.969	1.15
419.173	1.2
419.377	1.1
419.581	1.28
419.785	1.18
419.989	1.21
420.193	1.31
420.397	1.37
420.601	1.5
420.804	1.54
421.008	1.39
421.212	1.54
421.416	1.58
421.62	1.56
421.823	1.6
422.027	1.71
422.231	1.64
422.435	1.7
422.638	1.72
422.842	1.72
423.046	1.77
423.249	1.88
423.453	1.87
423.657	2
423.86	2.02
424.064	2.06
424.268	2.27
424.471	2.14
424.675	2.26
424.878	2.38
425.082	2.36
425.285	2.58
425.489	2.47
425.692	2.53
425.896	2.56
426.099	2.66
426.303	2.76
426.506	2.8
426.71	2.89
426.913	3.08
427.116	3.08
427.32	3.09
427.523	3.13
427.726	3.26
427.93	3.28
428.133	3.42
428.336	3.48
428.54	3.62
428.743	3.78
428.946	3.91
429.149	3.85
429.353	3.91
429.556	3.9
429.759	3.94
429.962	3.94
430.165	4.04
430.368	3.88
430.571	3.89
430.775	3.98
430.978	3.94
431.181	4
431.384	4
431.587	4.02
431.79	4.28
431.993	4.23
432.196	4.33
432.399	4.53
432.602	4.64
432.805	4.66
433.008	4.87
433.211	4.78
433.414	5.05
433.616	5.02
433.819	5
434.022	5.12
434.225	5.12
434.428	5.24
434.631	5.54
434.833	5.29
435.036	5.49
435.239	5.54
435.442	5.62
435.645	5.64
435.847	5.74
436.05	5.87
436.253	6.01
436.455	6
436.658	6.01
436.861	6.15
437.063	6.24
437.266	6.15
437.468	6.34
437.671	6.61
437.874	6.52
438.076	6.44
438.279	6.77
438.481	6.79
438.684	7.12
438.886	6.95
439.089	7.19
439.291	7.14
439.494	7.41
439.696	7.38
439.899	7.82
440.101	7.95
440.303	8.07
440.506	8.51
440.708	8.43
440.91	8.45
441.113	8.59
441.315	8.84
441.517	8.69
441.72	8.93
441.922	8.82
442.124	8.76
442.326	8.98
442.529	9.13
442.731	9.16
442.933	9.37
443.135	9.19
443.337	9.2
443.539	9.58
443.742	9.29
443.944	9.77
444.146	9.57
444.348	9.62
444.55	9.6
444.752	9.76
444.954	9.74
445.156	9.76
445.358	9.98
445.56	10.23
445.762	9.94
445.964	10.3
446.166	10
446.368	10.16
446.57	10.23
446.772	9.97
446.974	9.87
447.175	10.04
447.377	9.86
447.579	10.14
447.781	9.98
447.983	9.95
448.184	9.56
448.386	9.83
448.588	9.6
448.79	9.57
448.991	9.8
449.193	9.76
449.395	9.34
449.597	9.23
449.798	9.18
450	9.03
450.202	8.85
450.403	8.89
450.605	8.84
450.806	8.68
451.008	8.52
451.21	8.47
451.411	8.22
451.613	7.69
451.814	7.9
452.016	7.8
452.217	7.47
452.419	7.56
452.62	7.2
452.821	7.18
453.023	7.1
453.224	6.87
453.426	6.59
453.627	6.21
453.828	6.39
454.03	6.3
454.231	6.25
454.432	6.21
454.634	6.02
454.835	5.84
455.036	5.69
455.238	5.53
455.439	5.42
455.64	5.22
455.841	5.21
456.042	5.35
456.244	4.98
456.445	4.88
456.646	4.71
456.847	4.62
457.048	4.65
457.249	4.72
457.45	4.59
457.651	4.23
457.852	4.15
458.054	3.97
458.255	3.91
458.456	3.93
458.657	3.93
458.858	3.68
459.058	3.62
459.259	3.62
459.46	3.46
459.661	3.45
459.862	3.59
460.063	3.43
460.264	3.4
460.465	3.2
460.666	3.3
460.866	3.12
461.067	2.99
461.268	2.98
461.469	3
461.67	2.92
461.87	2.81
462.071	2.88
462.272	2.74
462.473	2.77
462.673	2.85
462.874	2.76
463.075	2.79
463.275	2.78
463.476	2.76
463.676	2.73
463.877	2.67
464.078	2.67
464.278	2.69
464.479	2.62
464.679	2.59
464.88	2.52
465.08	2.54
465.281	2.39
465.481	2.26
465.682	2.22
465.882	2.28
466.083	2.21
466.283	2.13
466.483	2.14
466.684	2.01
466.884	1.95
467.085	1.98
467.285	1.96
467.485	1.87
467.686	1.96
467.886	1.87
468.086	1.78
468.286	1.79
468.487	1.81
468.687	1.72
468.887	1.69
469.087	1.81
469.287	1.71
469.488	1.59
469.688	1.72
469.888	1.71
470.088	1.66
470.288	1.63
470.488	1.63
470.688	1.48
470.888	1.54
471.088	1.4
471.288	1.5
471.488	1.48
471.688	1.42
471.888	1.42
472.088	1.53
472.288	1.43
472.488	1.33
472.688	1.3
472.888	1.38
473.088	1.37
473.288	1.34
473.488	1.31
473.688	1.38
473.887	1.32
474.087	1.29
474.287	1.31
474.487	1.24
474.687	1.33
474.886	1.21
475.086	1.2
475.286	1.23
475.486	1.24
475.685	1.21
475.885	1.17
476.085	1.23
476.284	1.19
476.484	1.19
476.684	1.16
476.883	1.24
477.083	1.14
477.282	1.11
477.482	1.14
477.681	1.14
477.881	1.07
478.08	1.08
478.28	1.05
478.479	1.14
478.679	1.17
478.878	1.07
479.078	1
479.277	1.04
479.477	1.08
479.676	1.05
479.875	1.02
480.075	0.99
480.274	1.02
480.473	1.08
480.673	1.02
480.872	1.1
481.071	1.04
481.271	1.08
481.47	1.02
481.669	1.08
481.868	1.01
482.067	1.03
482.267	0.99
482.466	1.01
482.665	0.97
482.864	1.02
483.063	0.96
483.262	1.05
483.461	1.07
483.661	1.08
483.86	1.02
484.059	1.05
484.258	1.05
484.457	1.07
484.656	1.03
484.855	1.14
485.054	1
485.253	1.02
485.452	0.97
485.651	1.09
485.849	1.04
486.048	1.05
486.247	1.04
486.446	1.08
486.645	1.06
486.844	1.1
487.043	1.09
487.241	1.11
487.44	1.08
487.639	1.1
487.838	1.11
488.037	1.1
488.235	1.2
488.434	1.1
488.633	1.08
488.831	1.16
489.03	1.21
489.229	1.19
489.427	1.15
489.626	1.22
489.825	1.16
490.023	1.2
490.222	1.17
490.42	1.24
490.619	1.23
490.817	1.27
491.016	1.25
491.214	1.28
491.413	1.29
491.611	1.26
491.81	1.25
492.008	1.31
492.207	1.34
492.405	1.37
492.604	1.27
492.802	1.38
493	1.38
493.199	1.39
493.397	1.38
493.595	1.43
493.794	1.4
493.992	1.5
494.19	1.45
494.388	1.51
494.587	1.47
494.785	1.49
494.983	1.41
495.181	1.53
495.379	1.55
495.578	1.58
495.776	1.57
495.974	1.56
496.172	1.56
496.37	1.65
496.568	1.62
496.766	1.64
496.964	1.74
497.162	1.7
497.36	1.68
497.558	1.75
497.756	1.8
497.954	1.78
498.152	1.79
498.35	1.86
498.548	1.79
498.746	1.86
498.944	1.82
499.142	1.89
499.34	1.9
499.538	1.97
499.736	1.91
499.933	1.99
500.131	1.95
500.329	2.03
500.527	2.08
500.725	2.13
500.922	2.09
501.12	2.1
501.318	2.13
501.516	2.15
501.713	2.17
501.911	2.15
502.109	2.12
502.306	2.26
502.504	2.18
502.701	2.23
502.899	2.3
503.097	2.37
503.294	2.28
503.492	2.36
503.689	2.38
503.887	2.37
504.084	2.47
504.282	2.41
504.479	2.37
504.677	2.55
504.874	2.5
505.072	2.44
505.269	2.56
505.466	2.58
505.664	2.58
505.861	2.56
506.059	2.58
506.256	2.62
506.453	2.61
506.651	2.75
506.848	2.75
507.045	2.73
507.242	2.76
507.44	2.75
507.637	2.76
507.834	2.72
508.031	2.89
508.229	2.8
508.426	2.83
508.623	2.91
508.82	2.93
509.017	2.91
509.214	2.86
509.411	2.97
509.608	2.9
509.805	3.03
510.003	2.99
510.2	3.02
510.397	3.14
510.594	3.05
510.791	3.09
510.988	3.11
511.184	3.06
511.381	3.04
511.578	3.14
511.775	3.21
511.972	3.16
512.169	3.2
512.366	3.15
512.563	3.27
512.76	3.28
512.956	3.35
513.153	3.25
513.35	3.24
513.547	3.29
513.744	3.28
513.94	3.31
514.137	3.38
514.334	3.37
514.53	3.37
514.727	3.5
514.924	3.47
515.12	3.43
515.317	3.45
515.514	3.4
515.71	3.44
515.907	3.55
516.103	3.55
516.3	3.49
516.497	3.57
516.693	3.55
516.89	3.58
517.086	3.53
517.283	3.61
517.479	3.54
517.676	3.65
517.872	3.68
518.068	3.67
518.265	3.61
518.461	3.62
518.658	3.68
518.854	3.68
519.05	3.7
519.247	3.76
519.443	3.72
519.639	3.82
519.836	3.78
520.032	3.75
520.228	3.79
520.424	3.79
520.621	3.84
520.817	3.8
521.013	3.8
521.209	3.93
521.405	3.92
521.601	3.86
521.798	3.85
521.994	3.91
522.19	3.81
522.386	3.87
522.582	3.94
522.778	4.01
522.974	3.92
523.17	3.93
523.366	3.87
523.562	3.95
523.758	3.93
523.954	3.85
524.15	3.93
524.346	4.05
524.542	4.01
524.738	3.92
524.934	4.08
525.129	4.02
525.325	3.99
525.521	4.01
525.717	4.15
525.913	4
526.109	4.06
526.304	4.12
526.5	4.1
526.696	4.1
526.892	4.07
527.087	4.18
527.283	4.09
527.479	4.14
527.674	4.03
527.87	4.16
528.066	4.14
528.261	4.21
528.457	4.07
528.653	4.16
528.848	4.2
529.044	4.2
529.239	4.14
529.435	4.2
529.63	4.15
529.826	4.14
530.021	4.14
530.217	4.2
530.412	4.18
530.608	4.17
530.803	4.18
530.999	4.14
531.194	4.18
531.389	4.27
531.585	4.25
531.78	4.27
531.975	4.25
532.171	4.3
532.366	4.22
532.561	4.27
532.757	4.22
532.952	4.35
533.147	4.24
533.342	4.31
533.538	4.18
533.733	4.38
533.928	4.12
534.123	4.28
534.318	4.29
534.513	4.21
534.709	4.32
534.904	4.32
535.099	4.33
535.294	4.39
535.489	4.35
535.684	4.32
535.879	4.26
536.074	4.35
536.269	4.32
536.464	4.38
536.659	4.33
536.854	4.31
537.049	4.4
537.244	4.36
537.439	4.35
537.634	4.34
537.828	4.39
538.023	4.4
538.218	4.38
538.413	4.32
538.608	4.34
538.803	4.39
538.997	4.3
539.192	4.4
539.387	4.29
539.582	4.36
539.776	4.29
539.971	4.43
540.166	4.41
540.36	4.33
540.555	4.44
540.75	4.36
540.944	4.36
541.139	4.39
541.334	4.34
541.528	4.42
541.723	4.43
541.917	4.45
542.112	4.35
542.306	4.3
542.501	4.31
542.695	4.41
542.89	4.34
543.084	4.37
543.279	4.41
543.473	4.43
543.668	4.48
543.862	4.37
544.056	4.35
544.251	4.46
544.445	4.45
544.64	4.44
544.834	4.31
545.028	4.23
545.222	4.43
545.417	4.52
545.611	4.45
545.805	4.44
546	4.32
546.194	4.4
546.388	4.43
546.582	4.39
546.776	4.37
546.97	4.45
547.165	4.44
547.359	4.35
547.553	4.37
547.747	4.4
547.941	4.5
548.135	4.38
548.329	4.44
548.523	4.43
548.717	4.38
548.911	4.37
549.105	4.38
549.299	4.5
549.493	4.47
549.687	4.33
549.881	4.44
550.075	4.42
550.269	4.31
550.463	4.47
550.657	4.45
550.85	4.45
551.044	4.36
551.238	4.45
551.432	4.43
551.626	4.44
551.82	4.49
552.013	4.38
552.207	4.46
552.401	4.5
552.594	4.45
552.788	4.35
552.982	4.42
553.176	4.36
553.369	4.48
553.563	4.47
553.756	4.39
553.95	4.47
554.144	4.5
554.337	4.49
554.531	4.37
554.724	4.45
554.918	4.46
555.111	4.45
555.305	4.46
555.498	4.47
555.692	4.51
555.885	4.45
556.079	4.48
556.272	4.39
556.466	4.42
556.659	4.43
556.852	4.49
557.046	4.42
557.239	4.39
557.432	4.39
557.626	4.48
557.819	4.5
558.012	4.47
558.206	4.52
558.399	4.41
558.592	4.46
558.785	4.44
558.979	4.48
559.172	4.48
559.365	4.48
559.558	4.41
559.751	4.41
559.944	4.52
560.138	4.4
560.331	4.46
560.524	4.47
560.717	4.44
560.91	4.43
561.103	4.47
561.296	4.39
561.489	4.49
561.682	4.54
561.875	4.45
562.068	4.54
562.261	4.4
562.454	4.55
562.647	4.39
562.84	4.44
563.032	4.49
563.225	4.42
563.418	4.44
563.611	4.5
563.804	4.44
563.997	4.35
564.19	4.29
564.382	4.43
564.575	4.4
564.768	4.4
564.961	4.48
565.153	4.39
565.346	4.42
565.539	4.51
565.731	4.44
565.924	4.48
566.117	4.53
566.309	4.51
566.502	4.4
566.695	4.38
566.887	4.48
567.08	4.45
567.272	4.48
567.465	4.37
567.657	4.44
567.85	4.38
568.042	4.44
568.235	4.44
568.427	4.36
568.62	4.42
568.812	4.39
569.005	4.46
569.197	4.37
569.389	4.42
569.582	4.44
569.774	4.44
569.966	4.38
570.159	4.4
570.351	4.39
570.543	4.38
570.736	4.38
570.928	4.3
571.12	4.42
571.312	4.34
571.505	4.3
571.697	4.45
571.889	4.4
572.081	4.38
572.273	4.32
572.465	4.37
572.658	4.41
572.85	4.41
573.042	4.42
573.234	4.32
573.426	4.36
573.618	4.33
573.81	4.4
574.002	4.34
574.194	4.37
574.386	4.29
574.578	4.27
574.77	4.31
574.962	4.35
575.154	4.26
575.346	4.27
575.538	4.34
575.729	4.32
575.921	4.38
576.113	4.38
576.305	4.37
576.497	4.39
576.689	4.32
576.88	4.24
577.072	4.39
577.264	4.26
577.456	4.34
577.647	4.26
577.839	4.38
578.031	4.27
578.223	4.29
578.414	4.29
578.606	4.27
578.798	4.34
578.989	4.28
579.181	4.33
579.372	4.3
579.564	4.24
579.755	4.27
579.947	4.25
580.139	4.32
580.33	4.15
580.522	4.26
580.713	4.24
580.905	4.2
581.096	4.27
581.287	4.23
581.479	4.21
581.67	4.31
581.862	4.19
582.053	4.25
582.244	4.17
582.436	4.3
582.627	4.2
582.818	4.18
583.01	4.18
583.201	4.28
583.392	4.22
583.583	4.17
583.775	4.08
583.966	4.13
584.157	4.14
584.348	4.23
584.54	4.14
584.731	4.19
584.922	4.18
585.113	4.1
585.304	4.19
585.495	4.12
585.686	4.2
585.877	4.23
586.068	4.23
586.259	4.16
586.45	4.11
586.641	4.16
586.832	4.16
587.023	4.1
587.214	4.1
587.405	4.17
587.596	4.07
587.787	4.1
587.978	4.12
588.169	4.04
588.36	4.07
588.551	4.08
588.742	4.06
588.932	4.13
589.123	4.01
589.314	4.13
589.505	4.02
589.696	3.99
589.886	4.03
590.077	4.01
590.268	3.96
590.458	4
590.649	3.87
590.84	4.02
591.03	4.01
591.221	3.99
591.412	3.91
591.602	4.08
591.793	4.04
591.984	3.94
592.174	4
592.365	4.08
592.555	3.83
592.746	3.92
592.936	4
593.127	3.93
593.317	3.98
593.508	3.99
593.698	3.92
593.889	3.86
594.079	3.91
594.269	3.85
594.46	3.82
594.65	3.91
594.84	3.92
595.031	3.84
595.221	3.85
595.411	3.84
595.602	3.87
595.792	3.88
595.982	3.8
596.172	3.86
596.363	3.84
596.553	3.82
596.743	3.8
596.933	3.82
597.123	3.75
597.314	3.76
597.504	3.74
597.694	3.78
597.884	3.81
598.074	3.8
598.264	3.68
598.454	3.74
598.644	3.7
598.834	3.74
599.024	3.68
599.214	3.71
599.404	3.72
599.594	3.64
599.784	3.66
599.974	3.72
600.164	3.71
600.354	3.62
600.544	3.57
600.734	3.66
600.924	3.64
601.114	3.6
601.303	3.6
601.493	3.6
601.683	3.65
601.873	3.59
602.063	3.53
602.252	3.56
602.442	3.52
602.632	3.55
602.821	3.45
603.011	3.57
603.201	3.55
603.39	3.56
603.58	3.48
603.77	3.54
603.959	3.54
604.149	3.47
604.339	3.51
604.528	3.57
604.718	3.51
604.907	3.5
605.097	3.39
605.286	3.43
605.476	3.44
605.665	3.48
605.855	3.36
606.044	3.45
606.234	3.42
606.423	3.4
606.612	3.4
606.802	3.39
606.991	3.42
607.181	3.44
607.37	3.34
607.559	3.24
607.749	3.33
607.938	3.28
608.127	3.28
608.316	3.3
608.506	3.26
608.695	3.36
608.884	3.28
609.073	3.29
609.263	3.36
609.452	3.34
609.641	3.21
609.83	3.14
610.019	3.3
610.208	3.21
610.397	3.2
610.586	3.24
610.775	3.23
610.965	3.21
611.154	3.13
611.343	3.13
611.532	3.09
611.721	3.16
611.91	3.1
612.099	3.15
612.287	3.08
612.476	3.05
612.665	3.15
612.854	3.05
613.043	3.14
613.232	3.09
613.421	3.02
613.61	3.08
613.798	3.04
613.987	3.04
614.176	3.06
614.365	3.04
614.554	3.07
614.742	3.02
614.931	2.95
615.12	3.07
615.309	3.01
615.497	2.97
615.686	2.88
615.875	2.99
616.063	2.95
616.252	2.93
616.44	2.94
616.629	2.91
616.818	2.95
617.006	2.86
617.195	2.88
617.383	2.89
617.572	2.85
617.76	2.81
617.949	2.84
618.137	2.91
618.326	2.86
618.514	2.75
618.703	2.72
618.891	2.88
619.079	2.73
619.268	2.83
619.456	2.74
619.644	2.8
619.833	2.72
620.021	2.74
620.209	2.67
620.398	2.78
620.586	2.67
620.774	2.73
620.962	2.7
621.151	2.8
621.339	2.7
621.527	2.66
621.715	2.61
621.903	2.62
622.092	2.61
622.28	2.72
622.468	2.54
622.656	2.66
622.844	2.59
623.032	2.63
623.22	2.53
623.408	2.69
623.596	2.63
623.784	2.62
623.972	2.52
624.16	2.55
624.348	2.63
624.536	2.55
624.724	2.46
624.912	2.53
625.1	2.55
625.288	2.57
625.476	2.46
625.664	2.52
625.851	2.4
626.039	2.49
626.227	2.42
626.415	2.41
626.603	2.35
626.79	2.46
626.978	2.46
627.166	2.45
627.354	2.41
627.541	2.35
627.729	2.29
627.917	2.49
628.104	2.4
628.292	2.36
628.48	2.34
628.667	2.34
628.855	2.36
629.042	2.4
629.23	2.25
629.418	2.26
629.605	2.28
629.793	2.29
629.98	2.29
630.168	2.28
630.355	2.29
630.543	2.28
630.73	2.2
630.917	2.3
631.105	2.34
631.292	2.24
631.48	2.22
631.667	2.32
631.854	2.22
632.042	2.19
632.229	2.15
632.416	2.19
632.604	2.18
632.791	2.07
632.978	2.18
633.165	2.18
633.353	2.22
633.54	2.24
633.727	2.06
633.914	2.13
634.101	2.04
634.289	2.15
634.476	2.06
634.663	2.01
634.85	2.09
635.037	2.06
635.224	2
635.411	2.09
635.598	2.02
635.785	2.06
635.972	2.02
636.159	2.06
636.346	2.02
636.533	1.96
636.72	2
636.907	1.97
637.094	1.95
637.281	1.89
637.468	1.95
637.655	1.96
637.842	1.97
638.029	1.9
638.215	1.97
638.402	1.9
638.589	1.87
638.776	1.83
638.963	1.85
639.149	1.92
639.336	1.95
639.523	1.86
639.709	1.88
639.896	1.82
640.083	1.85
640.27	1.86
640.456	1.82
640.643	1.85
640.829	1.72
641.016	1.78
641.203	1.74
641.389	1.79
641.576	1.77
641.762	1.73
641.949	1.73
642.135	1.75
642.322	1.76
642.508	1.65
642.695	1.77
642.881	1.68
643.068	1.69
643.254	1.72
643.441	1.74
643.627	1.71
643.813	1.59
644	1.67
644.186	1.59
644.372	1.68
644.559	1.68
644.745	1.62
644.931	1.6
645.118	1.65
645.304	1.61
645.49	1.6
645.676	1.6
645.862	1.59
646.049	1.62
646.235	1.56
646.421	1.66
646.607	1.61
646.793	1.54
646.979	1.5
647.165	1.54
647.352	1.58
647.538	1.57
647.724	1.53
647.91	1.5
648.096	1.53
648.282	1.58
648.468	1.54
648.654	1.55
648.84	1.49
649.026	1.55
649.212	1.46
649.397	1.42
649.583	1.42
649.769	1.5
649.955	1.47
650.141	1.45
650.327	1.49
650.513	1.41
650.698	1.43
650.884	1.35
651.07	1.47
651.256	1.4
651.442	1.37
651.627	1.33
651.813	1.41
651.999	1.39
652.184	1.38
652.37	1.39
652.556	1.37
652.741	1.43
652.927	1.27
653.113	1.29
653.298	1.34
653.484	1.32
653.669	1.24
653.855	1.32
654.04	1.36
654.226	1.33
654.412	1.25
654.597	1.21
654.782	1.3
654.968	1.34
655.153	1.31
655.339	1.24
655.524	1.24
655.71	1.31
655.895	1.23
656.08	1.22
656.266	1.31
656.451	1.26
656.636	1.19
656.822	1.28
657.007	1.18
657.192	1.2
657.378	1.14
657.563	1.13
657.748	1.25
657.933	1.22
658.118	1.12
658.304	1.15
658.489	1.21
658.674	1.21
658.859	1.12
659.044	1.17
659.229	1.19
659.414	1.13
659.599	1.2
659.785	1.09
659.97	1.15
660.155	1.17
660.34	1.14
660.525	1.11
660.71	1.07
660.895	1.12
661.08	1.09
661.264	1.04
661.449	1.14
661.634	1.1
661.819	1.1
662.004	1.09
662.189	0.99
662.374	1.05
662.559	1.05
662.743	1
662.928	1.07
663.113	1.01
663.298	1
663.483	1.02
663.667	1.02
663.852	0.98
664.037	1.05
664.221	0.98
664.406	1.08
664.591	1.01
664.775	1.04
664.96	0.98
665.145	0.98
665.329	1.01
665.514	0.98
665.698	0.98
665.883	0.9
666.068	0.99
666.252	0.98
666.437	0.98
666.621	0.93
666.806	0.96
666.99	0.94
667.174	0.89
667.359	1.03
667.543	0.95
667.728	0.97
667.912	0.81
668.096	0.93
668.281	0.89
668.465	0.93
668.649	0.93
668.834	0.86
669.018	0.93
669.202	0.85
669.387	0.85
669.571	0.92
669.755	0.86
669.939	0.92
670.124	0.85
670.308	0.89
670.492	0.95
670.676	0.85
670.86	0.83
671.044	0.82
671.228	0.94
671.413	0.8
671.597	0.81
671.781	0.8
671.965	0.85
672.149	0.83
672.333	0.83
672.517	0.79
672.701	0.84
672.885	0.83
673.069	0.72
673.253	0.86
673.437	0.76
673.621	0.78
673.804	0.81
673.988	0.81
674.172	0.76
674.356	0.72
674.54	0.82
674.724	0.85
674.908	0.77
675.091	0.82
675.275	0.75
675.459	0.77
675.643	0.83
675.826	0.78
676.01	0.74
676.194	0.74
676.377	0.81
676.561	0.79
676.745	0.77
676.928	0.76
677.112	0.83
677.296	0.73
677.479	0.76
677.663	0.65
677.846	0.78
678.03	0.75
678.213	0.66
678.397	0.74
678.58	0.68
678.764	0.67
678.947	0.68
679.131	0.73
679.314	0.73
679.498	0.69
679.681	0.78
679.865	0.76
680.048	0.67
680.231	0.66
680.415	0.67
680.598	0.63
680.781	0.62
680.965	0.64
681.148	0.66
681.331	0.63
681.514	0.66
681.698	0.64
681.881	0.67
682.064	0.68
682.247	0.66
682.43	0.56
682.614	0.69
682.797	0.71
682.98	0.64
683.163	0.6
683.346	0.69
683.529	0.6
683.712	0.55
683.895	0.6
684.078	0.52
684.261	0.58
684.444	0.66
684.627	0.63
684.81	0.52
684.993	0.58
685.176	0.62
685.359	0.55
685.542	0.59
685.725	0.7
685.908	0.56
686.091	0.64
686.274	0.6
686.457	0.61
686.639	0.59
686.822	0.6
687.005	0.61
687.188	0.64
687.371	0.64
687.553	0.6
687.736	0.56
687.919	0.65
688.102	0.65
688.284	0.56
688.467	0.53
688.65	0.54
688.832	0.54
689.015	0.55
689.197	0.45
689.38	0.66
689.563	0.59
689.745	0.46
689.928	0.51
690.11	0.54
690.293	0.54
690.475	0.48
690.658	0.53
690.84	0.53
691.023	0.46
691.205	0.51
691.388	0.51
691.57	0.57
691.752	0.55
691.935	0.4
692.117	0.49
692.3	0.56
692.482	0.45
692.664	0.49
692.847	0.53
693.029	0.59
693.211	0.5
693.393	0.49
693.576	0.44
693.758	0.48
693.94	0.49
694.122	0.45
694.304	0.45
694.487	0.48
694.669	0.51
694.851	0.39
695.033	0.45
695.215	0.46
695.397	0.43
695.579	0.49
695.761	0.4
695.943	0.46
696.125	0.53
696.308	0.51
696.49	0.41
696.671	0.58
696.853	0.44
697.035	0.6
697.217	0.45
697.399	0.52
697.581	0.45
697.763	0.46
697.945	0.43
698.127	0.41
698.309	0.51
698.491	0.48
698.672	0.46
698.854	0.47
699.036	0.54
699.218	0.45
699.399	0.56
699.581	0.4
699.763	0.43
699.945	0.38
700.126	0.35
700.308	0.39
700.49	0.44
700.671	0.34
700.853	0.38
701.035	0.33
701.216	0.41
701.398	0.32
701.579	0.38
701.761	0.5
701.943	0.36
702.124	0.32
702.306	0.36
702.487	0.5
702.669	0.39
702.85	0.36
703.031	0.36
703.213	0.53
703.394	0.44
703.576	0.39
703.757	0.52
703.938	0.46
704.12	0.57
704.301	0.39
704.483	0.33
704.664	0.4
704.845	0.5
705.026	0.39
705.208	0.35
705.389	0.36
705.57	0.42
705.751	0.34
705.933	0.33
706.114	0.49
706.295	0.42
706.476	0.29
706.657	0.48
706.838	0.38
707.02	0.5
707.201	0.35
707.382	0.36
707.563	0.38
707.744	0.32
707.925	0.32
708.106	0.33
708.287	0.38
708.468	0.42
708.649	0.33
708.83	0.43
709.011	0.26
709.192	0.42
709.373	0.31
709.554	0.36
709.734	0.4
709.915	0.41
710.096	0.4
710.277	0.24
710.458	0.27
710.639	0.44
710.819	0.23
711	0.33
711.181	0.41
711.362	0.41
711.542	0.37
711.723	0.3
711.904	0.4
712.085	0.4
712.265	0.34
712.446	0.24
712.627	0.35
712.807	0.28
712.988	0.32
713.168	0.26
713.349	0.41
713.53	0.13
713.71	0.29
713.891	0.22
714.071	0.36
714.252	0.3
714.432	0.27
714.613	0.27
714.793	0.33
714.974	0.35
715.154	0.36
715.334	0.39
715.515	0.36
715.695	0.23
715.876	0.32
716.056	0.23
716.236	0.33
716.417	0.24
716.597	0.2
716.777	0.53
716.957	0.26
717.138	0.28
717.318	0.26
717.498	0.18
717.678	0.33
717.859	0.3
718.039	0.23
718.219	0.26
718.399	0.34
718.579	0.27
718.759	0.19
718.939	0.29
719.12	0.25
719.3	0.29
719.48	0.24
719.66	0.17
719.84	0.36
720.02	0.32
720.2	0.2
720.38	0.34
720.56	0.39
720.74	0.25
720.92	0.27
721.1	0.35
721.279	0.31
721.459	0.32
721.639	0.16
721.819	0.27
721.999	0.24
722.179	0.32
722.359	0.11
722.538	0.24
722.718	0.34
722.898	0.27
723.078	0.24
723.257	0.24
723.437	0.34
723.617	0.3
723.797	0.24
723.976	0.29
724.156	0.32
724.336	0.39
724.515	0.49
724.695	0.18
724.874	0.29
725.054	0.31
725.234	0.23
725.413	0.21
725.593	0.3
725.772	0.37
725.952	0.24
726.131	0.2
726.311	0.24
726.49	0.25
726.67	0.17
726.849	0.19
727.028	0.26
727.208	0.24
727.387	0.28
727.567	0.14
727.746	0.17
727.925	0.17
728.105	0.17
728.284	0.24
728.463	0.1
728.643	0.28
728.822	0.18
729.001	0.22
729.18	0.3
729.359	0.35
729.539	0.27
729.718	0.19
729.897	0.25
730.076	0.19
730.255	0.09
730.434	0.25
730.614	0.29
730.793	0.39
730.972	0.18
731.151	0.22
731.33	0.35
731.509	0.27
731.688	0.19
731.867	0.23
732.046	0.04
732.225	0.4
732.404	0.14
732.583	0.15
732.762	0.26
732.941	0.34
733.12	0.35
733.298	0.25
733.477	0.37
733.656	0.23
733.835	0.14
734.014	0.29
734.193	0.25
734.371	0.32
734.55	0.33
734.729	0.09
734.908	0.27
735.086	0.31
735.265	0.36
735.444	0.08
735.623	0.17
735.801	0.11
735.98	0.26
736.159	0.15
736.337	0.34
736.516	0.26
736.694	0.19
736.873	0.27
737.052	0.51
737.23	0.34
737.409	0.14
737.587	0.51
737.766	0.13
737.944	0.3
738.123	0.38
738.301	0.28
738.479	0.16
738.658	0.21
738.836	0.14
739.015	0.26
739.193	0.45
739.371	0.09
739.55	0.28
739.728	0.17
739.906	0.36
740.085	0.38
740.263	0.19
740.441	0.01
740.62	0.37
740.798	0.26
740.976	0.21
741.154	0.19
741.332	0.45
741.511	0.2
741.689	0.24
741.867	0.35
742.045	0.2
742.223	0.29
742.401	0.05
742.579	0.17
742.757	0.41
742.935	0.17
743.114	0.1
743.292	0.13
743.47	0.18
743.648	0.32
743.826	0.2
744.004	0.33
744.181	0.29
744.359	0.27
744.537	0.27
744.715	0.16
744.893	0.14
745.071	0.29
745.249	0.16
745.427	0.21
745.605	0.32
745.782	0.26
745.96	0.23
746.138	0.25
746.316	0.29
746.493	0.12
746.671	0.22
746.849	0.14
747.027	0.34
747.204	0.12
747.382	0.25
747.56	0.07
747.737	0.15
747.915	0.15
748.093	0.23
748.27	0.08
748.448	0.23
748.625	0.11
748.803	0.06
748.98	0.11
749.158	0.19
749.335	0.3
749.513	0.18
749.69	0.18
749.868	0.17
750.045	0.19
750.223	0.06
750.4	0.04
750.578	0.37
750.755	0.3
750.932	0
751.11	0.36
751.287	0.05
751.464	0.37
751.642	0.07
751.819	0.27
751.996	0.15
752.173	0.11
752.351	0.11
752.528	0.18
752.705	0.15
752.882	0.12
753.06	0.28
753.237	0.27
753.414	0.44
753.591	0.42
753.768	0.18
753.945	0.13
754.122	0.15
754.299	0.19
754.476	0.13
754.654	0.12
754.831	0.33
755.008	0.29
755.185	0.11
755.362	0.08
755.539	0.27
755.716	0.19
755.892	0.16
756.069	0.19
756.246	0.16
756.423	0.08
756.6	0.3
756.777	0.28
756.954	0.34
757.131	0.15
757.307	0.11
757.484	0.16
757.661	0.23
757.838	0.19
758.015	0
758.191	0.25
758.368	0.3
758.545	0.4
758.721	0.35
758.898	0.03
759.075	0.19
759.251	0.18
759.428	0.2
759.605	0.07
759.781	0.11
759.958	0.27
760.134	0.24
760.311	0.13
760.488	0.28
760.664	0.35
760.841	0.15
761.017	0.05
761.194	0.19
761.37	0.31
761.547	0.21
761.723	0.17
761.899	0.34
762.076	0.04
762.252	0.03
762.429	0.19
762.605	0.27
762.781	0.25
762.958	0.31
763.134	0.2
763.31	0.18
763.486	0.32
763.663	0.03
763.839	0.13
764.015	0.02
764.191	0.04
764.368	0.07
764.544	0.02
764.72	0.27
764.896	0.3
765.072	0.21
765.248	0.15
765.425	0.1
765.601	0.21
765.777	0.25
765.953	-0.16
766.129	0.12
766.305	0.03
766.481	0.18
766.657	0.11
766.833	0.33
767.009	-0.01
767.185	0.1
767.361	0.23
767.537	0.07
767.713	0.26
767.889	0.04
768.065	0.2
768.24	0.01
768.416	0.29
768.592	0.2
768.768	0.18
768.944	0.3
769.12	0.08
769.295	0.29
769.471	0.05
769.647	0.11
769.823	0.31
769.998	0.08
770.174	0.05
770.35	0.58
770.525	0.49
770.701	0.25
770.877	0.07
771.052	0.1
771.228	0.33
771.403	0.24
771.579	0.26
771.755	0.39
771.93	0.1
772.106	0.08
772.281	-0.08
772.457	0.26
772.632	0.19
772.808	-0.05
772.983	0.19
773.159	-0.12
773.334	0.28
773.509	0.18
773.685	0.06
773.86	0.56
774.036	0.36
774.211	0.27
774.386	0.16
774.562	0.13
774.737	0.2
774.912	0.22
775.087	0.19
775.263	0.24
775.438	0.3
775.613	0.06
775.788	0.24
775.964	0.22
776.139	0.47
776.314	0.02
776.489	0.22
776.664	0.25
776.839	0.06
777.014	0.29
777.19	0.18
777.365	0.47
777.54	0.27
777.715	0.07
777.89	0.07
778.065	0.16
778.24	0.14
778.415	0.41
778.59	0.01
778.765	0.09
778.94	0.27
779.115	0.09
779.289	0.06
779.464	0.15
779.639	0.22
779.814	0.13
779.989	0.12
780.164	0.45
780.339	0.26
780.513	0.15
780.688	0.06
780.863	0.17
781.038	0.3
781.212	0.11
781.387	0.21
781.562	0.5
781.737	0.08
781.911	0.27
782.086	-0.07
782.261	0.07
782.435	0.4
782.61	0.25
782.784	0.15
782.959	0.5
783.134	0.1
783.308	0.06
783.483	0.13
783.657	0.59
783.832	0.43
784.006	-0.21
784.181	0.32
784.355	0.33
784.53	-0.06
784.704	0.01
784.878	0.44
785.053	0.33
785.227	0.55
785.402	0.75
785.576	-0.08
785.75	0.12
785.925	0.17
786.099	0.39
786.273	0.14
786.448	0.55
786.622	0.25
786.796	0.04
786.97	0.24
787.145	0.78
787.319	-0.31
787.493	0.1
787.667	-0.22
787.841	0.11
788.015	0.43
788.19	-0.05
788.364	0.14
788.538	0.5
788.712	0.33
788.886	0.31
789.06	0.45
789.234	0.4
789.408	-0.03
789.582	0.09
789.756	0.15
789.93	0.05
790.104	0.03
790.278	0.1
790.452	-0.27
790.626	0.23
790.8	-0.03
790.973	0.41
791.147	0.35
791.321	0.48
791.495	0.46
791.669	0.2
791.843	0.3
792.016	0.42
792.19	0.54
792.364	-0.11
792.538	0.72
792.711	0.42
792.885	0.15
793.059	-0.15
793.233	-0.13
793.406	0.32
793.58	0.22
793.754	0.37
793.927	0.33
794.101	0.5
794.274	0.27
794.448	0.35
794.622	0
794.795	0.65
794.969	0.14
795.142	0.47
795.316	0.18
795.489	0.1
795.663	0.6
795.836	0.34
796.009	0.01
796.183	0.76
796.356	0.34
796.53	0.15
796.703	-0.14
796.876	0.66
797.05	0.05
797.223	0.14
797.396	0.18
797.57	0.32
797.743	0.53
797.916	0.3
798.09	0.21
798.263	0.48
798.436	0.54
798.609	-0.02
798.782	0.19
798.956	0.27
799.129	0.2
799.302	0.16
799.475	0.08
799.648	0.11
799.821	0.01
799.994	0.48
800.167	-0.04
800.34	0.09
800.514	0.24
800.687	0.06
800.86	0.16
801.033	0.27
801.206	0.52
801.379	-0.15
801.551	0.42
801.724	0.32
801.897	0.68
802.07	0.05
802.243	-0.36
802.416	0.23
802.589	0.04
802.762	0.47
802.935	0.19
803.107	0.38
803.28	0.6
803.453	0.52
803.626	0.04
803.798	0.32
803.971	-0.08
804.144	0.3
804.317	0.36
804.489	0.63
804.662	0.14
804.835	0.2
805.007	-0.13
805.18	0.76
805.353	0.43
805.525	0.05
805.698	0.04
805.87	0.41
806.043	0.27
806.215	-0.12
806.388	-0.11
806.56	0.21
806.733	0.72
806.905	0.35
807.078	-0.12
807.25	0.13
807.423	0.38
807.595	-0.01
807.768	0.32
807.94	0.41
808.112	0.37
808.285	0.33
808.457	-0.08
808.629	0.1
808.802	0.71
808.974	0.14
809.146	0.22
809.318	-0.13
809.491	0.43
809.663	0.74
809.835	-0.15
810.007	0.58
810.18	0.38
810.352	-0.15
810.524	0.25
810.696	-0.07
810.868	0.49
811.04	0.12
811.212	0.42
811.384	0.75
811.556	0.48
811.728	0.29
811.901	1.1
812.073	0.3
812.245	0.02
812.417	0.58
812.589	-0.4
812.76	0.66
812.932	0.62
813.104	0.89
813.276	0.07
813.448	0.6
813.62	0.41
813.792	0.37
813.964	0.49
814.136	0.4
814.307	0.13
814.479	0.27
814.651	0.15
814.823	0.93
814.995	0.05
815.166	0.41
815.338	0.32
815.51	-0.36
815.681	0.83
815.853	0.59
816.025	0.18
816.196	1.06
816.368	0.66
816.54	-0.33
816.711	0.18
816.883	0.37
817.054	1.7
817.226	-0.34
817.398	0.45
817.569	-0.1
817.741	0.4
817.912	0.68
818.084	0.03
818.255	0.83
818.426	-0.17
818.598	0.11
818.769	0.2
818.941	0.58
819.112	1.22
819.283	0.27
819.455	-0.42
819.626	0.43
819.798	0.64
819.969	0.15
820.14	0.29
820.311	0.19
820.483	0.76
820.654	0.37
820.825	0.8
820.996	0.2
821.168	-0.09
821.339	0.51
821.51	0.08
821.681	0.04
821.852	0.31
822.023	-0.24
822.195	-0.38
822.366	0.64
822.537	0.13
822.708	0.54
822.879	-0.29
823.05	0.83
823.221	-0.04
823.392	0.74
823.563	0.57
823.734	0.27
823.905	0.11
824.076	0.12
824.247	0.02
824.418	-0.11
824.589	0.98
824.759	0.24
824.93	0.38
825.101	-0.39
825.272	0.76
825.443	1.48
825.614	1.01
825.784	-0.15
825.955	1.7
826.126	0.93
826.297	0.35
826.467	1.26
826.638	1.11
826.809	-0.47
826.98	0.31
827.15	0.54
827.321	0.45
827.492	1.17
827.662	0.26
827.833	1.34
828.003	0.8
828.174	-0.3
828.345	-0.39
828.515	0.84
828.686	0.75
828.856	0.04
829.027	0.53
829.197	0.22
829.368	0.81
829.538	-0.04
829.709	0.09
829.879	0.83
830.049	0.32
830.22	-0.02
830.39	-0.03
830.56	0.35
830.731	0.39
830.901	-0.14
831.072	0.6
831.242	0.45
831.412	0.76
831.582	-0.13
831.753	-0.11
831.923	1.43
832.093	0.78
832.263	0.35
832.434	-0.57
832.604	0.18
832.774	0.6
832.944	0.74
833.114	-0.01
833.284	0.76
833.454	0.53
833.624	-0.04
833.795	0.42
833.965	1.02
834.135	1.19
834.305	-0.25
834.475	-0.17
834.645	-0.19
834.815	0.04
834.985	0.12
835.155	0.07
835.325	1.17
835.494	0.26
835.664	-0.06
835.834	-0.08
836.004	0.53
836.174	0.45
836.344	0.09
836.514	-0.52
836.684	0.41
836.853	0.64
837.023	0.59
837.193	-0.1
837.363	0.31
837.532	0.91
837.702	0.35
837.872	0.42
838.041	0.93
838.211	1.68
838.381	-0.27
838.55	0.64
838.72	2.42
838.89	1.36
839.059	-0.24
839.229	-0.01
839.398	1.46
839.568	0.47
839.738	0.31
839.907	1.3
840.077	0.99
840.246	-0.22
840.416	0.15
840.585	-0.38
840.755	1.95
840.924	0.46
841.093	0.23
841.263	0.13
841.432	0.75
841.602	0.26
841.771	0.09
841.94	0.63
842.11	2.35
842.279	1.61
842.448	0.02
842.617	-0.22
842.787	1.16
842.956	0.12
843.125	0.39
843.294	0.17
843.464	1.34
843.633	0.24
843.802	-0.46
843.971	0.84
844.14	1.04
844.309	1.47
844.479	-0.2
844.648	-0.21
844.817	0.2
844.986	0.5
845.155	-0.45
845.324	0.59
845.493	0.22
845.662	-0.12
845.831	1.51
846	0.96
846.169	0.64
846.338	1.17
846.507	0.41
846.676	0.67
846.844	-0.26
847.013	1.44
847.182	-0.21
847.351	-0.01
847.52	0.11
847.689	0.99
847.858	1.28
848.026	-0.15
848.195	0.24
848.364	-0.33
848.533	0.1
848.701	0.57
848.87	0.64
849.039	0.31
849.207	1.44
849.376	1.74
849.545	3.09
849.713	0.28
849.882	-0.31
850.051	1.24
850.219	0.91
850.388	2.09
850.556	0.88
850.725	-0.12
850.893	0.77
851.062	0.77
851.23	0.25
851.399	-0.69
851.567	1.49
851.736	0.66
851.904	-1.18
852.073	1.09
852.241	1.82
852.41	1.28
852.578	1.02
852.746	-0.05
852.915	2.36
853.083	1.02
853.251	0.11
853.42	-0.38
853.588	0.95
853.756	1.29
853.924	0.96
854.093	0.55
854.261	0.13
854.429	-0.66
854.597	0.66
854.765	0.04
854.934	1.91
855.102	1.25
855.27	0.76
855.438	0.76
855.606	2.08
855.774	2.27
855.942	-0.85
856.11	-0.96
856.278	1.4
856.446	2.19
856.614	-0.29
856.782	-0.32
856.95	1.22
857.118	0.56
857.286	1.22
857.454	-0.24
857.622	1.19
857.79	0.99
857.958	-0.02
858.126	0.31
858.294	-1.26
858.462	0.63
858.629	0.03
858.797	0.63
858.965	0.27
859.133	1.14
859.301	0.85
859.468	1.49
859.636	0.05
859.804	2.89
859.971	1.38
860.139	-0.43
860.307	1.97
860.474	0.98
860.642	-0.82
860.81	-0.16
860.977	1.06
861.145	2.2
861.313	0.26
861.48	1.17
861.648	2.35
861.815	0.88
861.983	-0.04
862.15	0.15
862.318	1.76
862.485	2.66
862.653	0.14
862.82	-1.47
862.988	3.15
863.155	1.99
863.322	-1.16
863.49	-0.33
863.657	0.24
863.824	3.52
863.992	0.98
864.159	1.04
864.326	2
864.494	0.04
864.661	2.75
864.828	-1.15
864.996	2.56
865.163	2.16
865.33	-0.48
865.497	-1.26
865.664	-1.18
865.832	-1.93
865.999	0.03
866.166	-0.34
866.333	-0.06
866.5	-1.58
866.667	0.19
866.834	0.76
867.001	3.91
867.168	-0.89
867.335	0.98
867.502	-1.02
867.669	2.31
867.836	4
868.003	-0.06
868.17	1.77
868.337	-0.11
868.504	3.62
868.671	-0.35
868.838	0.41
869.005	1.91
869.172	1.28
869.339	1
869.505	0.85
869.672	1.72
869.839	3.08
870.006	0.44
870.173	-1.1
870.339	2.82
870.506	3
870.673	-0.57
870.84	2.49
871.006	1.68
871.173	-1.31
871.34	0.08
871.506	-0.82
871.673	2.18
871.839	-1.99
872.006	1.77
872.173	-0.99
872.339	0.28
872.506	1.8
872.672	-0.37
872.839	-1.3
873.005	2.43
873.172	4.88
873.338	1.73
873.505	1.22
873.671	1.43
873.838	1.56
874.004	0.61
874.171	-1.35
874.337	1.63
874.503	1.99
874.67	0.81
874.836	-0.54
875.002	3.18
875.169	0.48
875.335	1.13
875.501	0.45
875.668	1.65
875.834	1.08
876	0.96
876.166	1.32
876.332	1.2
876.499	5.16
876.665	-0.22
876.831	2.48
876.997	4.15
877.163	0.18
877.329	-0.06
877.495	0.86
877.662	1.79
877.828	2.18
877.994	-0.33
878.16	-0.91
878.326	-0.24
878.492	0.98
878.658	-0.35
878.824	0.89
878.99	3.22
879.156	-0.62
879.322	3.86
879.487	0.54
879.653	1.96
879.819	2.37
879.985	-1.99
880.151	0.88
880.317	1.33
880.483	2.65
880.648	0.6
880.814	-1.59
880.98	0.86
881.146	-1.71
881.312	-2.12
881.477	-0.32
881.643	1.73
881.809	2.3
881.974	1.52
882.14	-3.34
882.306	0.88
882.471	2.67
882.637	0.99
882.803	2.49
882.968	6.43
883.134	5.03
883.299	1.74
883.465	1.14
883.63	0.09
883.796	3.48
883.961	-0.02
884.127	-0.11
884.292	-2.93
884.458	-1.46
884.623	-1.46
