Data from Apollo_Calib_20240827__AbsoluteIrradiance__735__11-24-01-485.txt Node

Date: Wed Aug 28 11:24:01 BST 2024
User: biology
Spectrometer: FLMT08252
Trigger mode: 0
Integration Time (sec): 5.000000E-1
Scans to average: 5
Electric dark correction enabled: true
Nonlinearity correction enabled: false
Boxcar width: 0
XAxis mode: Wavelengths
Number of Pixels in Spectrum: 3648
>>>>>Begin Spectral Data<<<<<
179.588	-0
179.809	-0
180.03	-0
180.251	-0
180.473	-0
180.694	0
180.915	0
181.136	-0
181.357	0
181.578	-0
181.799	-0
182.02	-0
182.241	-0
182.462	-0
182.683	0
182.904	-0
183.125	-0
183.346	0
183.567	0
183.788	0
184.009	-0
184.23	0
184.451	0
184.672	0
184.892	-0
185.113	0
185.334	0
185.555	0
185.776	0
185.996	0
186.217	0
186.438	0
186.659	0
186.879	0
187.1	0
187.321	-0
187.541	0
187.762	0
187.983	0
188.203	0
188.424	0
188.644	0
188.865	0
189.086	0
189.306	0
189.527	0
189.747	0
189.968	0
190.188	0
190.409	0
190.629	0
190.849	0
191.07	0
191.29	0
191.511	0
191.731	0
191.951	0
192.172	0
192.392	0
192.612	0
192.833	0
193.053	0
193.273	0
193.493	0
193.714	0
193.934	0
194.154	0
194.374	0
194.594	0
194.815	0
195.035	0
195.255	0
195.475	0
195.695	0
195.915	0
196.135	0
196.355	0
196.575	0
196.795	0
197.015	0
197.235	0
197.455	0
197.675	0
197.895	0
198.115	0
198.335	0
198.555	0
198.775	0
198.995	0
199.214	0
199.434	0
199.654	0
199.874	0
200.094	2.46
200.313	0.55
200.533	0.7
200.753	0.02
200.973	1.88
201.192	1.07
201.412	-0.22
201.632	0.13
201.851	2
202.071	0.24
202.291	0.67
202.51	0.34
202.73	1.2
202.95	0.71
203.169	0.05
203.389	0.85
203.608	0.66
203.828	-0.14
204.047	0.48
204.267	0.94
204.486	0.8
204.706	0.85
204.925	0.49
205.145	0.21
205.364	0.99
205.583	1.35
205.803	0.31
206.022	0.11
206.242	0.67
206.461	0.72
206.68	0.45
206.9	0.56
207.119	1.09
207.338	1.24
207.557	0.41
207.777	0.58
207.996	0.47
208.215	0.85
208.434	0.14
208.654	0.18
208.873	0.46
209.092	0.93
209.311	0.18
209.53	0.36
209.749	0.21
209.968	0.15
210.187	0.35
210.407	-0.19
210.626	0.29
210.845	0.64
211.064	0.43
211.283	0.12
211.502	0.69
211.721	0.31
211.94	0.09
212.159	0.55
212.377	0.82
212.596	0.81
212.815	0.4
213.034	0.69
213.253	0.74
213.472	0.56
213.691	0.32
213.91	0.17
214.128	0.31
214.347	0.8
214.566	-0.3
214.785	-0.11
215.003	0.53
215.222	0.51
215.441	0.2
215.66	-0.07
215.878	0.4
216.097	0.67
216.316	-0.04
216.534	0.27
216.753	0.43
216.972	0.42
217.19	0.13
217.409	0.13
217.627	0.28
217.846	0.2
218.064	0.51
218.283	0.13
218.501	0.76
218.72	0.61
218.938	0.05
219.157	0.07
219.375	0.56
219.594	0.45
219.812	-0.02
220.031	0.2
220.249	0.56
220.467	0.46
220.686	0.16
220.904	0.14
221.122	0.22
221.341	0.68
221.559	0.28
221.777	0.01
221.995	0.19
222.214	0.57
222.432	0.26
222.65	0.39
222.868	0.3
223.086	0.38
223.305	0.56
223.523	0.2
223.741	0.53
223.959	0.18
224.177	0.01
224.395	0.19
224.613	0.39
224.831	0.46
225.049	0.14
225.267	0.24
225.485	0.3
225.703	0.19
225.921	0.06
226.139	0.17
226.357	0.28
226.575	0.24
226.793	0.18
227.011	0.88
227.229	0.32
227.447	0.45
227.665	0.11
227.883	0.26
228.1	0.25
228.318	0.35
228.536	0.04
228.754	0.16
228.972	0.29
229.189	0.35
229.407	0.13
229.625	0.25
229.843	0.42
230.06	0.31
230.278	0.15
230.496	0.3
230.713	0.3
230.931	0.3
231.149	0.22
231.366	0.04
231.584	0.12
231.801	0.53
232.019	0.28
232.236	0.01
232.454	0.12
232.671	0.21
232.889	0.15
233.106	0.07
233.324	0.16
233.541	0.16
233.759	0.18
233.976	0.07
234.194	0.24
234.411	0.16
234.628	0.11
234.846	0.22
235.063	0.21
235.28	0.2
235.498	0.18
235.715	-0.02
235.932	0.31
236.149	0.14
236.367	0.13
236.584	0.31
236.801	0.17
237.018	0.38
237.236	0.17
237.453	-0.06
237.67	0.34
237.887	0.28
238.104	0.22
238.321	0.15
238.538	0.15
238.755	0.31
238.973	0.03
239.19	0.21
239.407	0.16
239.624	0.23
239.841	0.01
240.058	-0
240.275	0.22
240.492	0.23
240.709	0.15
240.925	0.12
241.142	0.2
241.359	0.09
241.576	0.15
241.793	0.08
242.01	0.22
242.227	0.38
242.444	0.19
242.66	0.21
242.877	0.19
243.094	0.14
243.311	0.21
243.527	0.12
243.744	0.28
243.961	0.25
244.178	0.09
244.394	0.16
244.611	0.37
244.828	0.3
245.044	0.09
245.261	0.14
245.477	0.17
245.694	0.29
245.911	0.14
246.127	0.18
246.344	0.34
246.56	0.23
246.777	0.08
246.993	0.19
247.21	0.18
247.426	0.24
247.643	0.12
247.859	0.04
248.076	0.12
248.292	0.4
248.508	0.21
248.725	0.2
248.941	0.23
249.157	0.4
249.374	0.1
249.59	0.14
249.806	0.15
250.023	0.24
250.239	0.12
250.455	0.04
250.671	0.13
250.888	0.22
251.104	0.18
251.32	0.14
251.536	0.22
251.752	0.12
251.969	0.09
252.185	0.16
252.401	0.39
252.617	0.2
252.833	0.04
253.049	0.2
253.265	0.19
253.481	0.25
253.697	0.09
253.913	0.11
254.129	0.25
254.345	0.16
254.561	0.16
254.777	0.21
254.993	0.2
255.209	0.26
255.425	0.14
255.641	0.01
255.857	0.23
256.073	0.23
256.288	0.11
256.504	0.13
256.72	0.17
256.936	0.18
257.152	0.04
257.367	0.1
257.583	0.16
257.799	0.15
258.015	0.09
258.23	0.1
258.446	0.3
258.662	0.1
258.877	0.08
259.093	0.1
259.309	0.12
259.524	0.19
259.74	0.11
259.955	0.03
260.171	0.17
260.387	0.18
260.602	0.22
260.818	0.2
261.033	0.08
261.249	0.12
261.464	0.07
261.68	0.04
261.895	0.17
262.11	0.21
262.326	0.04
262.541	0.02
262.757	0.23
262.972	0.19
263.187	0.18
263.403	0.25
263.618	0.23
263.833	0.12
264.049	0.11
264.264	0.11
264.479	0.1
264.694	0.27
264.91	0.05
265.125	0.14
265.34	0.19
265.555	0.28
265.77	0.17
265.986	0.09
266.201	0.28
266.416	0.26
266.631	0.13
266.846	0.11
267.061	0.21
267.276	0.21
267.491	-0
267.706	0.16
267.921	0.21
268.136	0.18
268.351	0.13
268.566	0.05
268.781	0.18
268.996	0.19
269.211	0.14
269.426	0.1
269.641	0.1
269.856	0.19
270.071	0.13
270.285	0.05
270.5	0.19
270.715	0.22
270.93	0.14
271.145	0.12
271.359	0.26
271.574	0.1
271.789	0.17
272.004	0.05
272.218	0.09
272.433	0.18
272.648	0.11
272.862	0.2
273.077	0.09
273.292	0.15
273.506	0.12
273.721	0.07
273.936	0.13
274.15	0.15
274.365	0.08
274.579	0.22
274.794	0.15
275.008	0.23
275.223	0.04
275.437	0.14
275.652	0.18
275.866	0.15
276.081	0.1
276.295	0.16
276.509	0.09
276.724	0.06
276.938	0.14
277.153	0.14
277.367	0.14
277.581	0.1
277.796	0.13
278.01	0.08
278.224	0.19
278.438	0.27
278.653	0.05
278.867	0.07
279.081	-0.02
279.295	0.1
279.51	0.08
279.724	0.04
279.938	0.23
280.152	0.19
280.366	0.1
280.58	0.14
280.794	0.23
281.008	0.22
281.222	0.14
281.437	0.3
281.651	0.17
281.865	0.24
282.079	0.12
282.293	0.01
282.507	0.03
282.721	0.14
282.935	0.11
283.148	0.1
283.362	0.07
283.576	0.07
283.79	0.09
284.004	0.09
284.218	0.13
284.432	0.05
284.646	0.09
284.859	0.09
285.073	0.12
285.287	0.11
285.501	0.12
285.714	0.13
285.928	0.09
286.142	0.13
286.356	0.07
286.569	0.07
286.783	0.2
286.997	0.15
287.21	0.15
287.424	0.15
287.637	0.07
287.851	0.08
288.065	0.13
288.278	0.09
288.492	0.15
288.705	0.09
288.919	0.15
289.132	0.07
289.346	0.18
289.559	0.06
289.773	0.06
289.986	0.13
290.2	0.15
290.413	0.18
290.626	0.06
290.84	0.13
291.053	0.14
291.267	0.22
291.48	0.13
291.693	0.12
291.906	0.07
292.12	0.1
292.333	0.08
292.546	0.08
292.76	0.2
292.973	0.14
293.186	0.15
293.399	0.11
293.612	0.15
293.826	0.06
294.039	0.15
294.252	0.08
294.465	0.19
294.678	0.12
294.891	0.12
295.104	0.08
295.317	0.07
295.53	0.14
295.743	0.08
295.956	0.12
296.169	0.19
296.382	0.18
296.595	0.09
296.808	0.05
297.021	0.17
297.234	0.17
297.447	0.1
297.66	0.11
297.873	0.21
298.086	0.1
298.299	0.09
298.511	0.03
298.724	0.09
298.937	0.07
299.15	0.1
299.363	0.12
299.575	0.13
299.788	0.1
300.001	0.11
300.213	0.09
300.426	0.09
300.639	0.09
300.852	0.09
301.064	0.15
301.277	0.19
301.489	0.13
301.702	0.13
301.915	0.13
302.127	0.1
302.34	0.11
302.552	0.13
302.765	0.09
302.977	0.12
303.19	0.14
303.402	0.08
303.615	0.05
303.827	0.06
304.04	0.09
304.252	0.11
304.464	0.11
304.677	0.21
304.889	0.15
305.102	0.03
305.314	0.08
305.526	0.14
305.739	0.12
305.951	0.08
306.163	0.08
306.375	0.19
306.588	0.11
306.8	0.08
307.012	0.06
307.224	0.13
307.436	0.16
307.649	0.04
307.861	0.13
308.073	0.15
308.285	0.12
308.497	0.05
308.709	0.09
308.921	0.14
309.133	0.18
309.346	0.08
309.558	0.14
309.77	0.14
309.982	0.19
310.194	0.14
310.406	0.04
310.617	0.19
310.829	0.11
311.041	0.13
311.253	0.03
311.465	0.12
311.677	0.14
311.889	0.12
312.101	0.07
312.313	0.13
312.524	0.19
312.736	0.04
312.948	0.06
313.16	0.19
313.372	0.12
313.583	0.1
313.795	0.09
314.007	0.09
314.218	0.14
314.43	0.1
314.642	0.1
314.853	0.08
315.065	0.16
315.277	0.09
315.488	0.11
315.7	0.13
315.912	0.11
316.123	0.12
316.335	0.12
316.546	0.22
316.758	0.11
316.969	0.1
317.181	0.14
317.392	0.1
317.604	0.18
317.815	0.06
318.026	0.08
318.238	0.04
318.449	0.13
318.661	0.03
318.872	0.05
319.083	0.06
319.295	0.14
319.506	0.07
319.717	0.13
319.929	0.13
320.14	0.12
320.351	0.11
320.562	0.06
320.774	0.1
320.985	0.11
321.196	0.05
321.407	0.03
321.618	0.14
321.829	0.11
322.041	0.14
322.252	0.12
322.463	0.15
322.674	0.12
322.885	0.04
323.096	0.09
323.307	0.11
323.518	0.16
323.729	0.07
323.94	0.04
324.151	0.1
324.362	0.13
324.573	0.16
324.784	0.09
324.995	0.13
325.206	0.09
325.417	0.07
325.628	0.08
325.838	0.13
326.049	0.11
326.26	0.14
326.471	0.09
326.682	0.12
326.892	0.13
327.103	0.07
327.314	0.04
327.525	0.17
327.735	0.13
327.946	0.07
328.157	0.07
328.368	0.14
328.578	0.12
328.789	0.09
328.999	0.1
329.21	0.11
329.421	0.16
329.631	0.1
329.842	0.11
330.052	0.18
330.263	0.13
330.473	0.19
330.684	0.11
330.894	0.1
331.105	0.13
331.315	0.08
331.526	0.02
331.736	0.18
331.947	0.13
332.157	0.12
332.367	0.05
332.578	0.09
332.788	0.15
332.999	0.15
333.209	0.1
333.419	0.05
333.629	0.12
333.84	0.11
334.05	0.13
334.26	0.19
334.47	0.11
334.681	0.14
334.891	0.1
335.101	0.13
335.311	0.19
335.521	0.1
335.732	-0.02
335.942	0.17
336.152	0.12
336.362	0.14
336.572	0.1
336.782	0.15
336.992	0.13
337.202	0.07
337.412	0.06
337.622	0.15
337.832	0.11
338.042	0.09
338.252	0.07
338.462	0.12
338.672	0.11
338.882	0.08
339.092	0.13
339.302	0.17
339.511	0.13
339.721	0.08
339.931	0.02
340.141	0.19
340.351	0.14
340.561	0.12
340.77	0.12
340.98	0.15
341.19	0.11
341.4	0.06
341.609	0.04
341.819	0.12
342.029	0.04
342.238	0.1
342.448	0.08
342.658	0.11
342.867	0.11
343.077	0.1
343.286	0.13
343.496	0.13
343.706	0.23
343.915	0.06
344.125	0.05
344.334	0.15
344.544	0.02
344.753	0.07
344.963	0.1
345.172	0.07
345.381	0.07
345.591	0.06
345.8	0.05
346.01	0.15
346.219	0.16
346.428	-0.02
346.638	0.1
346.847	0.07
347.056	0.16
347.266	0.06
347.475	0.05
347.684	0.16
347.893	0.07
348.103	0.14
348.312	0.08
348.521	0.09
348.73	0.09
348.94	0.08
349.149	0.09
349.358	0.1
349.567	0.09
349.776	0.05
349.985	0.07
350.194	0.16
350.403	0.13
350.612	0.07
350.821	0.06
351.03	0.09
351.239	0.07
351.448	0.11
351.657	0.06
351.866	0.15
352.075	0.09
352.284	0.16
352.493	0.04
352.702	0.14
352.911	0.08
353.12	0.12
353.329	0.07
353.538	0.12
353.746	0.13
353.955	0.1
354.164	0.13
354.373	0.11
354.582	0.15
354.79	0.08
354.999	0.16
355.208	0.09
355.416	0.18
355.625	0.05
355.834	0.11
356.042	0.09
356.251	0.09
356.46	0.04
356.668	0.12
356.877	0.19
357.085	0.15
357.294	0.03
357.503	0.12
357.711	0.12
357.92	0.23
358.128	0.12
358.337	0.07
358.545	0.09
358.754	0.08
358.962	0.11
359.17	0.1
359.379	0.12
359.587	0.13
359.796	0.11
360.004	0.16
360.212	0.15
360.421	0.16
360.629	0.04
360.837	0.09
361.046	0.14
361.254	0.19
361.462	0.11
361.67	0.05
361.879	0.08
362.087	0.21
362.295	0.13
362.503	0.07
362.711	0.04
362.92	0.06
363.128	0.06
363.336	0.05
363.544	0.08
363.752	0.08
363.96	0.09
364.168	0.08
364.376	0.12
364.584	0.08
364.792	0.12
365	0.12
365.208	0.12
365.416	0.14
365.624	0.15
365.832	0.07
366.04	0.17
366.248	0.13
366.456	0.13
366.664	0.1
366.872	0.06
367.079	0.1
367.287	0.1
367.495	0.13
367.703	0.09
367.911	0.08
368.118	0.12
368.326	0.09
368.534	0.05
368.742	0.17
368.949	0.03
369.157	0.05
369.365	0.11
369.572	0.05
369.78	0.06
369.988	0.12
370.195	0.14
370.403	0.13
370.61	0.08
370.818	0.08
371.026	0.15
371.233	0.07
371.441	0.1
371.648	0.09
371.856	0.13
372.063	0.1
372.271	0.08
372.478	0.07
372.685	0.07
372.893	0.13
373.1	0.1
373.308	0.05
373.515	0.18
373.722	0.15
373.93	0.07
374.137	0.12
374.344	0.18
374.552	0.13
374.759	0.12
374.966	0.07
375.173	0.09
375.381	0.12
375.588	0.11
375.795	0.05
376.002	0.11
376.209	0.07
376.417	0.1
376.624	0.08
376.831	0.12
377.038	0.1
377.245	0.03
377.452	0.09
377.659	0.13
377.866	0.06
378.073	0.11
378.28	0.09
378.487	0.18
378.694	0.11
378.901	0.13
379.108	0.14
379.315	0.16
379.522	0.18
379.729	0.13
379.936	0.08
380.143	0.1
380.35	0.1
380.557	0.08
380.763	0.14
380.97	0.06
381.177	0.11
381.384	0.09
381.591	0.12
381.797	0.13
382.004	0.12
382.211	0.09
382.418	0.04
382.624	0.12
382.831	0.13
383.038	0.08
383.244	0.09
383.451	0.07
383.658	0.17
383.864	0.08
384.071	0.08
384.277	0.18
384.484	0.06
384.69	0.15
384.897	0.1
385.103	0.11
385.31	0.06
385.516	0.08
385.723	0.09
385.929	0.09
386.136	0.07
386.342	0.1
386.549	0.08
386.755	0.16
386.961	0.14
387.168	0.13
387.374	0.14
387.58	0.12
387.787	0.13
387.993	0.12
388.199	0.14
388.406	0.08
388.612	0.12
388.818	0.11
389.024	0.1
389.231	0.08
389.437	0.17
389.643	0.17
389.849	0.14
390.055	0.1
390.261	0.14
390.467	0.16
390.674	0.07
390.88	0.11
391.086	0.12
391.292	0.08
391.498	0.11
391.704	0.11
391.91	0.11
392.116	0.1
392.322	0.06
392.528	0.15
392.734	0.1
392.94	0.13
393.146	0.08
393.352	0.11
393.557	0.09
393.763	0.06
393.969	0.14
394.175	0.13
394.381	0.1
394.587	0.08
394.792	0.11
394.998	0.14
395.204	0.16
395.41	0.1
395.615	0.14
395.821	0.14
396.027	0.17
396.233	0.11
396.438	0.14
396.644	0.19
396.85	0.16
397.055	0.14
397.261	0.17
397.466	0.1
397.672	0.18
397.878	0.18
398.083	0.15
398.289	0.05
398.494	0.14
398.7	0.13
398.905	0.06
399.111	0.2
399.316	0.07
399.522	0.16
399.727	0.16
399.932	0.11
400.138	0.17
400.343	0.16
400.549	0.13
400.754	0.12
400.959	0.16
401.165	0.13
401.37	0.13
401.575	0.23
401.78	0.17
401.986	0.12
402.191	0.16
402.396	0.14
402.601	0.15
402.807	0.17
403.012	0.16
403.217	0.18
403.422	0.16
403.627	0.16
403.832	0.09
404.037	0.19
404.243	0.19
404.448	0.12
404.653	0.15
404.858	0.18
405.063	0.19
405.268	0.12
405.473	0.12
405.678	0.13
405.883	0.3
406.088	0.16
406.293	0.14
406.498	0.17
406.703	0.28
406.907	0.18
407.112	0.14
407.317	0.19
407.522	0.25
407.727	0.12
407.932	0.23
408.136	0.3
408.341	0.24
408.546	0.24
408.751	0.26
408.956	0.21
409.16	0.26
409.365	0.18
409.57	0.18
409.774	0.25
409.979	0.24
410.184	0.3
410.388	0.23
410.593	0.31
410.798	0.28
411.002	0.28
411.207	0.33
411.411	0.3
411.616	0.25
411.82	0.29
412.025	0.32
412.229	0.28
412.434	0.37
412.638	0.35
412.843	0.3
413.047	0.34
413.252	0.32
413.456	0.38
413.66	0.42
413.865	0.37
414.069	0.46
414.273	0.39
414.478	0.37
414.682	0.46
414.886	0.43
415.091	0.39
415.295	0.36
415.499	0.49
415.703	0.49
415.908	0.58
416.112	0.5
416.316	0.64
416.52	0.6
416.724	0.55
416.929	0.56
417.133	0.76
417.337	0.61
417.541	0.67
417.745	0.65
417.949	0.74
418.153	0.75
418.357	0.76
418.561	0.93
418.765	0.84
418.969	0.99
419.173	0.95
419.377	0.88
419.581	1.09
419.785	0.98
419.989	0.93
420.193	1.01
420.397	1.12
420.601	1.19
420.804	1.28
421.008	1.14
421.212	1.29
421.416	1.26
421.62	1.23
421.823	1.24
422.027	1.41
422.231	1.35
422.435	1.33
422.638	1.37
422.842	1.46
423.046	1.51
423.249	1.57
423.453	1.53
423.657	1.63
423.86	1.61
424.064	1.72
424.268	1.83
424.471	1.72
424.675	1.92
424.878	1.98
425.082	1.89
425.285	2.08
425.489	2
425.692	2.01
425.896	2.02
426.099	2.21
426.303	2.17
426.506	2.23
426.71	2.37
426.913	2.44
427.116	2.53
427.32	2.43
427.523	2.56
427.726	2.67
427.93	2.6
428.133	2.69
428.336	2.8
428.54	2.91
428.743	2.97
428.946	3.17
429.149	3.13
429.353	3.13
429.556	3.12
429.759	3.2
429.962	3.11
430.165	3.29
430.368	3.16
430.571	3.17
430.775	3.2
430.978	3.19
431.181	3.18
431.384	3.24
431.587	3.26
431.79	3.47
431.993	3.43
432.196	3.54
432.399	3.62
432.602	3.76
432.805	3.75
433.008	3.94
433.211	3.8
433.414	4.04
433.616	4.02
433.819	4.03
434.022	4.06
434.225	4.21
434.428	4.23
434.631	4.5
434.833	4.27
435.036	4.39
435.239	4.41
435.442	4.51
435.645	4.54
435.847	4.61
436.05	4.85
436.253	4.82
436.455	4.78
436.658	4.79
436.861	4.99
437.063	5
437.266	4.91
437.468	5.16
437.671	5.4
437.874	5.37
438.076	5.19
438.279	5.42
438.481	5.48
438.684	5.73
438.886	5.71
439.089	5.8
439.291	5.89
439.494	5.97
439.696	6.08
439.899	6.27
440.101	6.5
440.303	6.52
440.506	6.91
440.708	6.81
440.91	6.81
441.113	7
441.315	7.14
441.517	7.03
441.72	7.33
441.922	7.09
442.124	7.09
442.326	7.32
442.529	7.52
442.731	7.42
442.933	7.74
443.135	7.56
443.337	7.55
443.539	7.86
443.742	7.71
443.944	8.02
444.146	7.96
444.348	7.92
444.55	7.91
444.752	8.06
444.954	8.08
445.156	8.07
445.358	8.28
445.56	8.41
445.762	8.19
445.964	8.56
446.166	8.36
446.368	8.31
446.57	8.4
446.772	8.33
446.974	8.11
447.175	8.37
447.377	8.22
447.579	8.31
447.781	8.17
447.983	8.33
448.184	7.93
448.386	8.18
448.588	7.83
448.79	7.94
448.991	8.22
449.193	8.14
449.395	7.84
449.597	7.65
449.798	7.61
450	7.45
450.202	7.35
450.403	7.43
450.605	7.43
450.806	7.13
451.008	7.1
451.21	7
451.411	6.84
451.613	6.43
451.814	6.62
452.016	6.62
452.217	6.23
452.419	6.32
452.62	6.12
452.821	5.99
453.023	5.88
453.224	5.7
453.426	5.5
453.627	5.17
453.828	5.24
454.03	5.26
454.231	5.2
454.432	5.1
454.634	5.01
454.835	4.72
455.036	4.7
455.238	4.67
455.439	4.53
455.64	4.35
455.841	4.25
456.042	4.37
456.244	4.13
456.445	4.03
456.646	3.79
456.847	3.87
457.048	3.73
457.249	3.84
457.45	3.9
457.651	3.39
457.852	3.4
458.054	3.31
458.255	3.16
458.456	3.31
458.657	3.12
458.858	2.96
459.058	2.94
459.259	2.99
459.46	2.83
459.661	2.82
459.862	3.04
460.063	2.77
460.264	2.76
460.465	2.65
460.666	2.78
460.866	2.55
461.067	2.47
461.268	2.35
461.469	2.4
461.67	2.38
461.87	2.28
462.071	2.28
462.272	2.28
462.473	2.26
462.673	2.32
462.874	2.26
463.075	2.24
463.275	2.19
463.476	2.33
463.676	2.26
463.877	2.17
464.078	2.06
464.278	2.21
464.479	2.15
464.679	2.1
464.88	2.02
465.08	2.07
465.281	2
465.481	1.88
465.682	1.78
465.882	1.86
466.083	1.8
466.283	1.79
466.483	1.71
466.684	1.64
466.884	1.62
467.085	1.6
467.285	1.67
467.485	1.55
467.686	1.52
467.886	1.48
468.086	1.47
468.286	1.49
468.487	1.52
468.687	1.39
468.887	1.41
469.087	1.51
469.287	1.38
469.488	1.3
469.688	1.43
469.888	1.35
470.088	1.32
470.288	1.35
470.488	1.3
470.688	1.15
470.888	1.29
471.088	1.11
471.288	1.25
471.488	1.25
471.688	1.19
471.888	1.13
472.088	1.22
472.288	1.14
472.488	1.12
472.688	1.07
472.888	1.13
473.088	1.09
473.288	1.06
473.488	0.99
473.688	1.18
473.887	1.08
474.087	1.02
474.287	0.97
474.487	0.99
474.687	1.04
474.886	0.98
475.086	1
475.286	0.98
475.486	0.97
475.685	0.94
475.885	0.91
476.085	0.95
476.284	0.97
476.484	0.91
476.684	0.97
476.883	1.05
477.083	0.93
477.282	0.86
477.482	0.96
477.681	0.94
477.881	0.87
478.08	0.85
478.28	0.84
478.479	0.94
478.679	0.9
478.878	0.84
479.078	0.87
479.277	0.86
479.477	0.86
479.676	0.88
479.875	0.86
480.075	0.82
480.274	0.9
480.473	0.87
480.673	0.85
480.872	0.89
481.071	0.9
481.271	0.88
481.47	0.82
481.669	0.82
481.868	0.81
482.067	0.82
482.267	0.77
482.466	0.79
482.665	0.8
482.864	0.85
483.063	0.8
483.262	0.86
483.461	0.89
483.661	0.87
483.86	0.86
484.059	0.84
484.258	0.88
484.457	0.89
484.656	0.86
484.855	0.93
485.054	0.79
485.253	0.83
485.452	0.83
485.651	0.89
485.849	0.87
486.048	0.84
486.247	0.81
486.446	0.9
486.645	0.87
486.844	0.89
487.043	0.87
487.241	0.9
487.44	0.88
487.639	0.9
487.838	0.9
488.037	0.91
488.235	0.99
488.434	0.93
488.633	0.85
488.831	0.97
489.03	0.98
489.229	0.97
489.427	0.96
489.626	0.99
489.825	1
490.023	1
490.222	0.94
490.42	1.01
490.619	1.01
490.817	1
491.016	0.97
491.214	1.04
491.413	1.03
491.611	1.01
491.81	1
492.008	1.08
492.207	1.09
492.405	1.12
492.604	1.02
492.802	1.07
493	1.15
493.199	1.15
493.397	1.14
493.595	1.18
493.794	1.13
493.992	1.23
494.19	1.19
494.388	1.25
494.587	1.22
494.785	1.23
494.983	1.15
495.181	1.27
495.379	1.3
495.578	1.28
495.776	1.28
495.974	1.29
496.172	1.29
496.37	1.34
496.568	1.33
496.766	1.36
496.964	1.4
497.162	1.41
497.36	1.4
497.558	1.44
497.756	1.47
497.954	1.47
498.152	1.49
498.35	1.53
498.548	1.49
498.746	1.53
498.944	1.49
499.142	1.51
499.34	1.56
499.538	1.63
499.736	1.58
499.933	1.62
500.131	1.61
500.329	1.66
500.527	1.67
500.725	1.74
500.922	1.76
501.12	1.76
501.318	1.78
501.516	1.78
501.713	1.8
501.911	1.77
502.109	1.74
502.306	1.8
502.504	1.77
502.701	1.79
502.899	1.88
503.097	1.97
503.294	1.88
503.492	1.95
503.689	1.96
503.887	1.95
504.084	2.01
504.282	1.95
504.479	1.99
504.677	2.09
504.874	2.01
505.072	2
505.269	2.12
505.466	2.13
505.664	2.1
505.861	2.08
506.059	2.12
506.256	2.18
506.453	2.19
506.651	2.25
506.848	2.29
507.045	2.24
507.242	2.25
507.44	2.26
507.637	2.29
507.834	2.27
508.031	2.37
508.229	2.33
508.426	2.29
508.623	2.37
508.82	2.43
509.017	2.37
509.214	2.39
509.411	2.43
509.608	2.42
509.805	2.48
510.003	2.48
510.2	2.49
510.397	2.59
510.594	2.5
510.791	2.58
510.988	2.55
511.184	2.61
511.381	2.55
511.578	2.59
511.775	2.66
511.972	2.6
512.169	2.63
512.366	2.62
512.563	2.71
512.76	2.73
512.956	2.74
513.153	2.67
513.35	2.71
513.547	2.65
513.744	2.76
513.94	2.74
514.137	2.78
514.334	2.78
514.53	2.82
514.727	2.88
514.924	2.9
515.12	2.84
515.317	2.83
515.514	2.89
515.71	2.82
515.907	2.92
516.103	2.93
516.3	2.87
516.497	2.97
516.693	2.96
516.89	2.97
517.086	2.97
517.283	3.05
517.479	2.91
517.676	3.04
517.872	3.03
518.068	3.02
518.265	3.01
518.461	2.98
518.658	3.05
518.854	3.09
519.05	3.11
519.247	3.12
519.443	3.06
519.639	3.18
519.836	3.09
520.032	3.07
520.228	3.16
520.424	3.18
520.621	3.18
520.817	3.14
521.013	3.17
521.209	3.23
521.405	3.25
521.601	3.22
521.798	3.22
521.994	3.25
522.19	3.19
522.386	3.17
522.582	3.22
522.778	3.29
522.974	3.2
523.17	3.26
523.366	3.26
523.562	3.29
523.758	3.27
523.954	3.16
524.15	3.3
524.346	3.35
524.542	3.3
524.738	3.35
524.934	3.37
525.129	3.36
525.325	3.32
525.521	3.31
525.717	3.47
525.913	3.36
526.109	3.32
526.304	3.43
526.5	3.4
526.696	3.4
526.892	3.35
527.087	3.46
527.283	3.43
527.479	3.43
527.674	3.31
527.87	3.43
528.066	3.43
528.261	3.48
528.457	3.35
528.653	3.47
528.848	3.45
529.044	3.5
529.239	3.39
529.435	3.45
529.63	3.41
529.826	3.47
530.021	3.47
530.217	3.49
530.412	3.46
530.608	3.47
530.803	3.47
530.999	3.44
531.194	3.45
531.389	3.55
531.585	3.46
531.78	3.56
531.975	3.55
532.171	3.54
532.366	3.5
532.561	3.54
532.757	3.47
532.952	3.65
533.147	3.49
533.342	3.57
533.538	3.48
533.733	3.64
533.928	3.44
534.123	3.55
534.318	3.57
534.513	3.53
534.709	3.64
534.904	3.56
535.099	3.59
535.294	3.61
535.489	3.61
535.684	3.57
535.879	3.56
536.074	3.62
536.269	3.63
536.464	3.63
536.659	3.5
536.854	3.63
537.049	3.64
537.244	3.6
537.439	3.6
537.634	3.66
537.828	3.61
538.023	3.6
538.218	3.62
538.413	3.55
538.608	3.61
538.803	3.63
538.997	3.58
539.192	3.66
539.387	3.62
539.582	3.65
539.776	3.6
539.971	3.68
540.166	3.66
540.36	3.62
540.555	3.68
540.75	3.62
540.944	3.64
541.139	3.62
541.334	3.6
541.528	3.62
541.723	3.68
541.917	3.62
542.112	3.56
542.306	3.56
542.501	3.6
542.695	3.61
542.89	3.59
543.084	3.63
543.279	3.62
543.473	3.66
543.668	3.7
543.862	3.57
544.056	3.59
544.251	3.65
544.445	3.71
544.64	3.69
544.834	3.56
545.028	3.5
545.222	3.66
545.417	3.77
545.611	3.68
545.805	3.64
546	3.6
546.194	3.63
546.388	3.7
546.582	3.61
546.776	3.61
546.97	3.69
547.165	3.61
547.359	3.66
547.553	3.64
547.747	3.65
547.941	3.72
548.135	3.64
548.329	3.65
548.523	3.67
548.717	3.59
548.911	3.65
549.105	3.65
549.299	3.65
549.493	3.7
549.687	3.63
549.881	3.71
550.075	3.72
550.269	3.57
550.463	3.69
550.657	3.68
550.85	3.66
551.044	3.64
551.238	3.71
551.432	3.66
551.626	3.73
551.82	3.72
552.013	3.62
552.207	3.72
552.401	3.76
552.594	3.69
552.788	3.64
552.982	3.64
553.176	3.62
553.369	3.78
553.563	3.7
553.756	3.63
553.95	3.7
554.144	3.7
554.337	3.73
554.531	3.62
554.724	3.69
554.918	3.74
555.111	3.65
555.305	3.67
555.498	3.68
555.692	3.72
555.885	3.67
556.079	3.66
556.272	3.7
556.466	3.71
556.659	3.65
556.852	3.72
557.046	3.64
557.239	3.61
557.432	3.64
557.626	3.68
557.819	3.7
558.012	3.74
558.206	3.73
558.399	3.69
558.592	3.67
558.785	3.68
558.979	3.68
559.172	3.66
559.365	3.68
559.558	3.68
559.751	3.64
559.944	3.68
560.138	3.64
560.331	3.66
560.524	3.68
560.717	3.66
560.91	3.65
561.103	3.7
561.296	3.61
561.489	3.72
561.682	3.74
561.875	3.72
562.068	3.77
562.261	3.69
562.454	3.74
562.647	3.61
562.84	3.71
563.032	3.66
563.225	3.62
563.418	3.65
563.611	3.66
563.804	3.68
563.997	3.61
564.19	3.59
564.382	3.69
564.575	3.67
564.768	3.62
564.961	3.74
565.153	3.63
565.346	3.63
565.539	3.7
565.731	3.68
565.924	3.74
566.117	3.78
566.309	3.7
566.502	3.66
566.695	3.65
566.887	3.73
567.08	3.65
567.272	3.67
567.465	3.61
567.657	3.68
567.85	3.63
568.042	3.68
568.235	3.7
568.427	3.56
568.62	3.67
568.812	3.66
569.005	3.69
569.197	3.61
569.389	3.69
569.582	3.66
569.774	3.66
569.966	3.6
570.159	3.56
570.351	3.62
570.543	3.64
570.736	3.66
570.928	3.56
571.12	3.64
571.312	3.64
571.505	3.5
571.697	3.71
571.889	3.65
572.081	3.59
572.273	3.59
572.465	3.64
572.658	3.63
572.85	3.68
573.042	3.63
573.234	3.61
573.426	3.66
573.618	3.61
573.81	3.65
574.002	3.64
574.194	3.64
574.386	3.58
574.578	3.53
574.77	3.56
574.962	3.59
575.154	3.56
575.346	3.62
575.538	3.56
575.729	3.52
575.921	3.58
576.113	3.62
576.305	3.58
576.497	3.64
576.689	3.56
576.88	3.5
577.072	3.64
577.264	3.63
577.456	3.55
577.647	3.51
577.839	3.69
578.031	3.53
578.223	3.57
578.414	3.5
578.606	3.58
578.798	3.6
578.989	3.54
579.181	3.62
579.372	3.53
579.564	3.55
579.755	3.51
579.947	3.48
580.139	3.6
580.33	3.42
580.522	3.49
580.713	3.47
580.905	3.51
581.096	3.59
581.287	3.47
581.479	3.49
581.67	3.56
581.862	3.51
582.053	3.54
582.244	3.43
582.436	3.54
582.627	3.39
582.818	3.46
583.01	3.47
583.201	3.52
583.392	3.44
583.583	3.48
583.775	3.38
583.966	3.47
584.157	3.48
584.348	3.47
584.54	3.41
584.731	3.49
584.922	3.43
585.113	3.34
585.304	3.5
585.495	3.44
585.686	3.48
585.877	3.45
586.068	3.47
586.259	3.45
586.45	3.42
586.641	3.38
586.832	3.46
587.023	3.46
587.214	3.42
587.405	3.45
587.596	3.35
587.787	3.35
587.978	3.37
588.169	3.35
588.36	3.35
588.551	3.38
588.742	3.36
588.932	3.44
589.123	3.34
589.314	3.44
589.505	3.33
589.696	3.38
589.886	3.34
590.077	3.36
590.268	3.3
590.458	3.29
590.649	3.19
590.84	3.36
591.03	3.29
591.221	3.34
591.412	3.25
591.602	3.36
591.793	3.35
591.984	3.32
592.174	3.3
592.365	3.37
592.555	3.2
592.746	3.21
592.936	3.27
593.127	3.28
593.317	3.27
593.508	3.25
593.698	3.24
593.889	3.24
594.079	3.17
594.269	3.2
594.46	3.2
594.65	3.21
594.84	3.26
595.031	3.12
595.221	3.2
595.411	3.17
595.602	3.18
595.792	3.18
595.982	3.14
596.172	3.25
596.363	3.17
596.553	3.17
596.743	3.14
596.933	3.18
597.123	3.14
597.314	3.08
597.504	3.09
597.694	3.14
597.884	3.1
598.074	3.16
598.264	3.09
598.454	3.06
598.644	3.07
598.834	3.13
599.024	3.06
599.214	3.08
599.404	3.1
599.594	3.03
599.784	2.99
599.974	3.09
600.164	3.08
600.354	3.01
600.544	3.03
600.734	3.01
600.924	3.01
601.114	2.99
601.303	2.99
601.493	2.97
601.683	3.01
601.873	2.98
602.063	2.95
602.252	2.97
602.442	2.9
602.632	2.89
602.821	2.84
603.011	2.97
603.201	2.9
603.39	2.9
603.58	2.85
603.77	2.93
603.959	2.93
604.149	2.87
604.339	2.9
604.528	2.93
604.718	2.9
604.907	2.87
605.097	2.81
605.286	2.85
605.476	2.86
605.665	2.88
605.855	2.8
606.044	2.86
606.234	2.83
606.423	2.81
606.612	2.78
606.802	2.77
606.991	2.85
607.181	2.85
607.37	2.78
607.559	2.68
607.749	2.73
607.938	2.77
608.127	2.75
608.316	2.71
608.506	2.77
608.695	2.77
608.884	2.66
609.073	2.71
609.263	2.8
609.452	2.74
609.641	2.66
609.83	2.62
610.019	2.64
610.208	2.65
610.397	2.68
610.586	2.68
610.775	2.64
610.965	2.6
611.154	2.57
611.343	2.68
611.532	2.64
611.721	2.59
611.91	2.62
612.099	2.59
612.287	2.54
612.476	2.52
612.665	2.6
612.854	2.54
613.043	2.57
613.232	2.52
613.421	2.49
613.61	2.53
613.798	2.47
613.987	2.54
614.176	2.53
614.365	2.5
614.554	2.49
614.742	2.52
614.931	2.41
615.12	2.51
615.309	2.47
615.497	2.45
615.686	2.37
615.875	2.44
616.063	2.39
616.252	2.37
616.44	2.39
616.629	2.38
616.818	2.39
617.006	2.38
617.195	2.41
617.383	2.37
617.572	2.36
617.76	2.33
617.949	2.35
618.137	2.38
618.326	2.34
618.514	2.26
618.703	2.2
618.891	2.38
619.079	2.25
619.268	2.37
619.456	2.23
619.644	2.33
619.833	2.31
620.021	2.26
620.209	2.18
620.398	2.29
620.586	2.21
620.774	2.26
620.962	2.24
621.151	2.31
621.339	2.25
621.527	2.2
621.715	2.18
621.903	2.16
622.092	2.13
622.28	2.23
622.468	2.13
622.656	2.14
622.844	2.13
623.032	2.16
623.22	2.08
623.408	2.23
623.596	2.12
623.784	2.14
623.972	2.07
624.16	2.06
624.348	2.11
624.536	2.16
624.724	2.06
624.912	2.14
625.1	2.08
625.288	2.07
625.476	2.05
625.664	2.1
625.851	2.02
626.039	2.08
626.227	2.03
626.415	2.03
626.603	1.95
626.79	2.02
626.978	1.98
627.166	2.03
627.354	1.93
627.541	1.95
627.729	1.87
627.917	2.03
628.104	2.03
628.292	2
628.48	1.99
628.667	1.91
628.855	1.97
629.042	2
629.23	1.87
629.418	1.95
629.605	1.91
629.793	1.85
629.98	1.9
630.168	1.89
630.355	1.87
630.543	1.91
630.73	1.83
630.917	1.86
631.105	1.93
631.292	1.84
631.48	1.84
631.667	1.89
631.854	1.82
632.042	1.79
632.229	1.72
632.416	1.82
632.604	1.83
632.791	1.69
632.978	1.84
633.165	1.73
633.353	1.8
633.54	1.83
633.727	1.69
633.914	1.69
634.101	1.67
634.289	1.76
634.476	1.63
634.663	1.68
634.85	1.64
635.037	1.62
635.224	1.61
635.411	1.75
635.598	1.68
635.785	1.67
635.972	1.67
636.159	1.69
636.346	1.64
636.533	1.64
636.72	1.66
636.907	1.68
637.094	1.62
637.281	1.52
637.468	1.59
637.655	1.64
637.842	1.57
638.029	1.55
638.215	1.58
638.402	1.57
638.589	1.54
638.776	1.57
638.963	1.48
639.149	1.59
639.336	1.62
639.523	1.54
639.709	1.49
639.896	1.51
640.083	1.57
640.27	1.53
640.456	1.49
640.643	1.49
640.829	1.44
641.016	1.47
641.203	1.42
641.389	1.54
641.576	1.49
641.762	1.47
641.949	1.4
642.135	1.48
642.322	1.45
642.508	1.37
642.695	1.43
642.881	1.37
643.068	1.4
643.254	1.42
643.441	1.43
643.627	1.41
643.813	1.35
644	1.41
644.186	1.35
644.372	1.41
644.559	1.39
644.745	1.34
644.931	1.3
645.118	1.35
645.304	1.34
645.49	1.29
645.676	1.31
645.862	1.38
646.049	1.31
646.235	1.31
646.421	1.41
646.607	1.33
646.793	1.3
646.979	1.22
647.165	1.26
647.352	1.28
647.538	1.27
647.724	1.27
647.91	1.24
648.096	1.29
648.282	1.25
648.468	1.22
648.654	1.26
648.84	1.26
649.026	1.21
649.212	1.21
649.397	1.19
649.583	1.12
649.769	1.22
649.955	1.19
650.141	1.21
650.327	1.24
650.513	1.16
650.698	1.17
650.884	1.07
651.07	1.13
651.256	1.18
651.442	1.16
651.627	1.12
651.813	1.16
651.999	1.13
652.184	1.15
652.37	1.14
652.556	1.08
652.741	1.16
652.927	1.01
653.113	1.1
653.298	1.14
653.484	1.07
653.669	1.03
653.855	1.08
654.04	1.12
654.226	1.07
654.412	1.03
654.597	1
654.782	1.07
654.968	1.09
655.153	1.08
655.339	1.03
655.524	0.98
655.71	1.05
655.895	1.01
656.08	1.01
656.266	1.1
656.451	0.99
656.636	0.95
656.822	0.97
657.007	0.97
657.192	0.97
657.378	0.94
657.563	0.96
657.748	0.99
657.933	0.99
658.118	0.92
658.304	0.94
658.489	0.97
658.674	0.99
658.859	0.89
659.044	0.94
659.229	0.96
659.414	0.96
659.599	0.94
659.785	0.91
659.97	0.94
660.155	0.95
660.34	0.94
660.525	0.93
660.71	0.87
660.895	0.95
661.08	0.89
661.264	0.85
661.449	0.93
661.634	0.9
661.819	0.9
662.004	0.86
662.189	0.8
662.374	0.86
662.559	0.79
662.743	0.81
662.928	0.83
663.113	0.83
663.298	0.79
663.483	0.82
663.667	0.87
663.852	0.78
664.037	0.89
664.221	0.81
664.406	0.87
664.591	0.85
664.775	0.83
664.96	0.8
665.145	0.81
665.329	0.85
665.514	0.76
665.698	0.81
665.883	0.76
666.068	0.83
666.252	0.81
666.437	0.74
666.621	0.79
666.806	0.78
666.99	0.75
667.174	0.77
667.359	0.84
667.543	0.77
667.728	0.75
667.912	0.69
668.096	0.82
668.281	0.72
668.465	0.77
668.649	0.73
668.834	0.7
669.018	0.76
669.202	0.74
669.387	0.72
669.571	0.73
669.755	0.68
669.939	0.74
670.124	0.72
670.308	0.8
670.492	0.75
670.676	0.73
670.86	0.72
671.044	0.66
671.228	0.73
671.413	0.68
671.597	0.65
671.781	0.66
671.965	0.71
672.149	0.69
672.333	0.67
672.517	0.62
672.701	0.69
672.885	0.65
673.069	0.56
673.253	0.72
673.437	0.65
673.621	0.6
673.804	0.68
673.988	0.68
674.172	0.68
674.356	0.54
674.54	0.67
674.724	0.71
674.908	0.64
675.091	0.69
675.275	0.63
675.459	0.7
675.643	0.57
675.826	0.63
676.01	0.63
676.194	0.6
676.377	0.67
676.561	0.63
676.745	0.6
676.928	0.63
677.112	0.65
677.296	0.57
677.479	0.52
677.663	0.6
677.846	0.62
678.03	0.57
678.213	0.55
678.397	0.57
678.58	0.56
678.764	0.56
678.947	0.54
679.131	0.57
679.314	0.62
679.498	0.57
679.681	0.58
679.865	0.62
680.048	0.58
680.231	0.51
680.415	0.53
680.598	0.53
680.781	0.52
680.965	0.51
681.148	0.54
681.331	0.57
681.514	0.58
681.698	0.55
681.881	0.53
682.064	0.55
682.247	0.54
682.43	0.46
682.614	0.53
682.797	0.59
682.98	0.56
683.163	0.46
683.346	0.51
683.529	0.46
683.712	0.43
683.895	0.5
684.078	0.46
684.261	0.45
684.444	0.56
684.627	0.55
684.81	0.49
684.993	0.51
685.176	0.52
685.359	0.43
685.542	0.44
685.725	0.54
685.908	0.48
686.091	0.49
686.274	0.52
686.457	0.5
686.639	0.48
686.822	0.55
687.005	0.5
687.188	0.48
687.371	0.58
687.553	0.51
687.736	0.51
687.919	0.56
688.102	0.54
688.284	0.42
688.467	0.45
688.65	0.47
688.832	0.38
689.015	0.47
689.197	0.36
689.38	0.54
689.563	0.55
689.745	0.4
689.928	0.43
690.11	0.41
690.293	0.52
690.475	0.4
690.658	0.46
690.84	0.43
691.023	0.42
691.205	0.43
691.388	0.4
691.57	0.43
691.752	0.41
691.935	0.35
692.117	0.41
692.3	0.44
692.482	0.41
692.664	0.4
692.847	0.44
693.029	0.49
693.211	0.48
693.393	0.37
693.576	0.39
693.758	0.4
693.94	0.42
694.122	0.4
694.304	0.36
694.487	0.35
694.669	0.45
694.851	0.28
695.033	0.38
695.215	0.36
695.397	0.38
695.579	0.39
695.761	0.33
695.943	0.29
696.125	0.42
696.308	0.41
696.49	0.26
696.671	0.5
696.853	0.36
697.035	0.56
697.217	0.38
697.399	0.44
697.581	0.34
697.763	0.32
697.945	0.29
698.127	0.34
698.309	0.4
698.491	0.39
698.672	0.4
698.854	0.39
699.036	0.43
699.218	0.38
699.399	0.4
699.581	0.4
699.763	0.35
699.945	0.33
700.126	0.29
700.308	0.36
700.49	0.33
700.671	0.29
700.853	0.33
701.035	0.29
701.216	0.36
701.398	0.26
701.579	0.32
701.761	0.35
701.943	0.3
702.124	0.29
702.306	0.3
702.487	0.53
702.669	0.31
702.85	0.23
703.031	0.31
703.213	0.47
703.394	0.37
703.576	0.33
703.757	0.44
703.938	0.41
704.12	0.44
704.301	0.31
704.483	0.29
704.664	0.34
704.845	0.48
705.026	0.4
705.208	0.26
705.389	0.27
705.57	0.35
705.751	0.31
705.933	0.33
706.114	0.43
706.295	0.31
706.476	0.26
706.657	0.39
706.838	0.31
707.02	0.38
707.201	0.23
707.382	0.26
707.563	0.35
707.744	0.24
707.925	0.23
708.106	0.26
708.287	0.32
708.468	0.37
708.649	0.31
708.83	0.34
709.011	0.23
709.192	0.35
709.373	0.21
709.554	0.35
709.734	0.31
709.915	0.3
710.096	0.25
710.277	0.14
710.458	0.31
710.639	0.33
710.819	0.19
711	0.27
711.181	0.33
711.362	0.3
711.542	0.28
711.723	0.26
711.904	0.33
712.085	0.28
712.265	0.28
712.446	0.15
712.627	0.24
712.807	0.25
712.988	0.17
713.168	0.17
713.349	0.3
713.53	0.05
713.71	0.17
713.891	0.21
714.071	0.22
714.252	0.19
714.432	0.21
714.613	0.09
714.793	0.3
714.974	0.37
715.154	0.25
715.334	0.27
715.515	0.35
715.695	0.15
715.876	0.18
716.056	0.18
716.236	0.22
716.417	0.25
716.597	0.22
716.777	0.43
716.957	0.23
717.138	0.24
717.318	0.26
717.498	0.14
717.678	0.25
717.859	0.28
718.039	0.16
718.219	0.26
718.399	0.3
718.579	0.19
718.759	0.13
718.939	0.22
719.12	0.23
719.3	0.28
719.48	0.07
719.66	0.05
719.84	0.3
720.02	0.26
720.2	0.12
720.38	0.23
720.56	0.33
720.74	0.15
720.92	0.25
721.1	0.34
721.279	0.34
721.459	0.19
721.639	0.12
721.819	0.21
721.999	0.23
722.179	0.24
722.359	0.11
722.538	0.26
722.718	0.21
722.898	0.18
723.078	0.16
723.257	0.14
723.437	0.24
723.617	0.29
723.797	0.21
723.976	0.17
724.156	0.18
724.336	0.28
724.515	0.36
724.695	0.14
724.874	0.27
725.054	0.21
725.234	0.18
725.413	0.19
725.593	0.26
725.772	0.27
725.952	0.14
726.131	0.16
726.311	0.29
726.49	0.18
726.67	0.12
726.849	0.14
727.028	0.26
727.208	0.13
727.387	0.23
727.567	0.11
727.746	0.25
727.925	0.13
728.105	0.12
728.284	0.17
728.463	0.2
728.643	0.18
728.822	0.12
729.001	0.15
729.18	0.19
729.359	0.26
729.539	0.15
729.718	0.16
729.897	0.29
730.076	0.2
730.255	0.07
730.434	0.19
730.614	0.21
730.793	0.33
730.972	0.22
731.151	0.25
731.33	0.26
731.509	0.21
731.688	0.16
731.867	0.12
732.046	0.08
732.225	0.43
732.404	0.08
732.583	0.06
732.762	0.27
732.941	0.24
733.12	0.22
733.298	0.17
733.477	0.28
733.656	0.11
733.835	0.12
734.014	0.23
734.193	0.21
734.371	0.27
734.55	0.19
734.729	0.09
734.908	0.21
735.086	0.25
735.265	0.26
735.444	0.05
735.623	0.17
735.801	0.1
735.98	0.17
736.159	0.13
736.337	0.23
736.516	0.18
736.694	0.19
736.873	0.1
737.052	0.33
737.23	0.33
737.409	0.09
737.587	0.37
737.766	0.02
737.944	0.16
738.123	0.17
738.301	0.26
738.479	0.12
738.658	0.23
738.836	0.02
739.015	0.17
739.193	0.25
739.371	0.05
739.55	0.16
739.728	-0.01
739.906	0.22
740.085	0.31
740.263	0.15
740.441	0.06
740.62	0.43
740.798	0.23
740.976	0.11
741.154	0.07
741.332	0.44
741.511	0.15
741.689	0.26
741.867	0.2
742.045	0.24
742.223	0.24
742.401	0.04
742.579	0.1
742.757	0.26
742.935	-0.04
743.114	0.24
743.292	0.16
743.47	0.18
743.648	0.16
743.826	0.22
744.004	0.09
744.181	0.31
744.359	0.1
744.537	0.17
744.715	0.09
744.893	0.17
745.071	0.04
745.249	0.02
745.427	0.14
745.605	0.27
745.782	0.19
745.96	0.22
746.138	0.15
746.316	0.2
746.493	0.13
746.671	0.24
746.849	0.21
747.027	0.29
747.204	0.04
747.382	0.27
747.56	0.08
747.737	0.2
747.915	0.1
748.093	0.25
748.27	0.02
748.448	0.12
748.625	0.11
748.803	0.05
748.98	0.14
749.158	0.3
749.335	0.2
749.513	0.14
749.69	0.07
749.868	0.06
750.045	0.22
750.223	-0.04
750.4	-0.04
750.578	0.39
750.755	0.19
750.932	0.05
751.11	0.33
751.287	0.06
751.464	0.28
751.642	0.06
751.819	0.23
751.996	0.13
752.173	0.17
752.351	0.06
752.528	0.05
752.705	0.22
752.882	0.08
753.06	0.19
753.237	0.29
753.414	0.32
753.591	0.28
753.768	0.28
753.945	0.05
754.122	0.15
754.299	0.21
754.476	0.06
754.654	0.14
754.831	0.13
755.008	0.21
755.185	-0.01
755.362	0.06
755.539	0.2
755.716	0.1
755.892	0.08
756.069	0.14
756.246	0.17
756.423	0.12
756.6	0.31
756.777	0.09
756.954	0.23
757.131	0.14
757.307	0.06
757.484	-0.06
757.661	0.17
757.838	0.17
758.015	0.11
758.191	0.16
758.368	0.14
758.545	0.33
758.721	0.28
758.898	0.1
759.075	0.15
759.251	0.07
759.428	0.19
759.605	0.02
759.781	0.07
759.958	0.26
760.134	0.1
760.311	0.03
760.488	0.27
760.664	0.21
760.841	0.07
761.017	-0.01
761.194	0.19
761.37	0.28
761.547	0.1
761.723	0.14
761.899	0.24
762.076	0.08
762.252	0.08
762.429	0.1
762.605	0.21
762.781	0.04
762.958	0.17
763.134	0.13
763.31	0.14
763.486	0.29
763.663	-0.07
763.839	0.23
764.015	-0.1
764.191	0.11
764.368	0.13
764.544	0.1
764.72	0.22
764.896	0.2
765.072	0.18
765.248	0.17
765.425	0.19
765.601	0.14
765.777	0.18
765.953	-0.01
766.129	0.07
766.305	0.09
766.481	0.28
766.657	0.13
766.833	0.33
767.009	0.05
767.185	0.11
767.361	0.17
767.537	-0.12
767.713	0.23
767.889	0.14
768.065	0.13
768.24	0.07
768.416	0.27
768.592	0.04
768.768	0.22
768.944	0.23
769.12	0.09
769.295	-0.02
769.471	0.09
769.647	0.15
769.823	0.32
769.998	0.04
770.174	0.1
770.35	0.51
770.525	0.39
770.701	0.28
770.877	0.14
771.052	0.04
771.228	0.23
771.403	0.24
771.579	0.29
771.755	0.53
771.93	0.07
772.106	0
772.281	-0.16
772.457	0.06
772.632	0.23
772.808	-0.02
772.983	-0.01
773.159	-0.01
773.334	0.37
773.509	0.14
773.685	0.03
773.86	0.41
774.036	0.35
774.211	0.1
774.386	0.09
774.562	0.19
774.737	0.19
774.912	0.1
775.087	0.34
775.263	0.18
775.438	0.11
775.613	0.05
775.788	0.16
775.964	0.32
776.139	0.38
776.314	-0.03
776.489	0.19
776.664	0.15
776.839	0.01
777.014	0.18
777.19	0.31
777.365	0.45
777.54	0.34
777.715	-0
777.89	0.16
778.065	0.03
778.24	0.09
778.415	0.2
778.59	-0.02
778.765	0.03
778.94	0.28
779.115	0.16
779.289	0.07
779.464	0.04
779.639	0.03
779.814	-0.08
779.989	0.07
780.164	0.37
780.339	0.18
780.513	0.06
780.688	-0.08
780.863	0.13
781.038	0.39
781.212	-0.07
781.387	0.18
781.562	0.43
781.737	0.08
781.911	0.44
782.086	-0.12
782.261	-0
782.435	0.48
782.61	0.13
782.784	0.02
782.959	0.53
783.134	-0.03
783.308	-0.07
783.483	0.13
783.657	0.47
783.832	0.33
784.006	-0.28
784.181	0.2
784.355	0.07
784.53	-0.18
784.704	-0.02
784.878	0.31
785.053	0.31
785.227	0.48
785.402	0.61
785.576	-0.02
785.75	0.01
785.925	0.14
786.099	0.04
786.273	0.23
786.448	0.43
786.622	0.24
786.796	0.1
786.97	0.1
787.145	0.56
787.319	-0.11
787.493	-0.09
787.667	-0.35
787.841	0.21
788.015	0.43
788.19	0.06
788.364	0.25
788.538	0.27
788.712	0.41
788.886	0.06
789.06	0.46
789.234	0.31
789.408	-0.07
789.582	0.13
789.756	0
789.93	0.07
790.104	0.22
790.278	-0.03
790.452	0.02
790.626	0.25
790.8	-0.01
790.973	0.12
791.147	0.32
791.321	0.42
791.495	0.36
791.669	0.14
791.843	0.3
792.016	0.07
792.19	0.57
792.364	-0.11
792.538	0.68
792.711	0.23
792.885	-0.09
793.059	0.03
793.233	-0.1
793.406	0.37
793.58	0.19
793.754	0.34
793.927	0.02
794.101	0.47
794.274	0.24
794.448	0.37
794.622	-0.2
794.795	0.26
794.969	0.04
795.142	0.37
795.316	-0.04
795.489	-0.17
795.663	0.8
795.836	0.3
796.009	-0.05
796.183	0.36
796.356	0.15
796.53	0.1
796.703	0.22
796.876	0.6
797.05	0.11
797.223	0.17
797.396	0.11
797.57	0.14
797.743	0.6
797.916	0.36
798.09	0.06
798.263	0.64
798.436	0.3
798.609	-0.03
798.782	-0.06
798.956	0.36
799.129	0.23
799.302	-0.4
799.475	0.11
799.648	-0.03
799.821	0.24
799.994	0.32
800.167	-0.3
800.34	0.51
800.514	-0.03
800.687	-0.01
800.86	0.07
801.033	0.27
801.206	0.21
801.379	0.12
801.551	0.32
801.724	0.48
801.897	0.58
802.07	-0
802.243	-0.04
802.416	0.29
802.589	-0.09
802.762	0.36
802.935	-0.05
803.107	0.39
803.28	0.63
803.453	0.56
803.626	-0.21
803.798	0.27
803.971	-0.05
804.144	0.17
804.317	0.36
804.489	0.16
804.662	0.42
804.835	0.43
805.007	-0.01
805.18	0.61
805.353	0.36
805.525	-0.17
805.698	0.06
805.87	0.63
806.043	0.47
806.215	-0.09
806.388	-0.03
806.56	0.33
806.733	0.44
806.905	0.29
807.078	0.17
807.25	0.03
807.423	0.36
807.595	0.36
807.768	0.3
807.94	0.55
808.112	0.34
808.285	0.23
808.457	-0.19
808.629	0.06
808.802	0.63
808.974	-0.12
809.146	0.14
809.318	-0.02
809.491	0.32
809.663	0.45
809.835	0.11
810.007	0.31
810.18	0.27
810.352	-0.21
810.524	0.15
810.696	0.44
810.868	0.67
811.04	0.37
811.212	0.07
811.384	0.76
811.556	0.54
811.728	-0.01
811.901	0.96
812.073	-0.17
812.245	0.51
812.417	0.27
812.589	-0.28
812.76	0.33
812.932	0.11
813.104	0.8
813.276	0.2
813.448	0.7
813.62	0.33
813.792	0.28
813.964	0.31
814.136	0.12
814.307	-0.17
814.479	-0.17
814.651	-0.03
814.823	0.94
814.995	0.18
815.166	0.14
815.338	-0.22
815.51	-0.1
815.681	0.71
815.853	0.19
816.025	-0.15
816.196	0.64
816.368	0.86
816.54	-0.02
816.711	-0.32
816.883	0.01
817.054	1.05
817.226	-0.23
817.398	0.31
817.569	0.27
817.741	0.22
817.912	-0.09
818.084	0.28
818.255	0.26
818.426	-0.16
818.598	0.25
818.769	-0.5
818.941	0.56
819.112	1.04
819.283	0.36
819.455	-0.34
819.626	0.22
819.798	0.51
819.969	0.67
820.14	-0.24
820.311	-0.01
820.483	0.23
820.654	0.07
820.825	0.19
820.996	0.42
821.168	-0.33
821.339	0.02
821.51	-0.1
821.681	0.21
821.852	1.1
822.023	-0.19
822.195	-0.55
822.366	0.38
822.537	0.21
822.708	0.89
822.879	-0.28
823.05	1.04
823.221	0.35
823.392	0.63
823.563	0.25
823.734	0.22
823.905	0.19
824.076	0.03
824.247	-0.2
824.418	0.25
824.589	1.07
824.759	-0.09
824.93	0.04
825.101	-0.41
825.272	1.39
825.443	0.9
825.614	1.21
825.784	-0.8
825.955	1.46
826.126	0.88
826.297	0.25
826.467	0.97
826.638	1.42
826.809	-0.68
826.98	0.25
827.15	0.72
827.321	0.26
827.492	0.46
827.662	0.33
827.833	0.98
828.003	0.54
828.174	-0.04
828.345	-0.18
828.515	0.96
828.686	0.36
828.856	0.11
829.027	0.17
829.197	0.08
829.368	0.82
829.538	0.34
829.709	-0.07
829.879	-0.04
830.049	0.16
830.22	0.26
830.39	0.01
830.56	0.48
830.731	0.32
830.901	-0.2
831.072	0.38
831.242	0.58
831.412	0.56
831.582	0.45
831.753	-0.2
831.923	0.84
832.093	0.49
832.263	0.03
832.434	0.09
832.604	-0.09
832.774	1.19
832.944	0.04
833.114	0.2
833.284	0.96
833.454	-0.26
833.624	-0.52
833.795	-0.22
833.965	1.39
834.135	1.22
834.305	-0.64
834.475	-0.06
834.645	0.02
834.815	-0.4
834.985	-0.23
835.155	-0.13
835.325	0.7
835.494	0.45
835.664	0.29
835.834	-0.68
836.004	0.94
836.174	0.53
836.344	0.71
836.514	-0.8
836.684	-0.22
836.853	0.8
837.023	0.85
837.193	-0.06
837.363	1.08
837.532	0.92
837.702	-0.21
837.872	-0.22
838.041	1.08
838.211	1.61
838.381	-0.51
838.55	0.18
838.72	2.25
838.89	1.89
839.059	-0.1
839.229	-0.25
839.398	1.13
839.568	0.26
839.738	0.45
839.907	1.71
840.077	0.69
840.246	0.15
840.416	-0.02
840.585	-0.35
840.755	2.12
840.924	1.47
841.093	-0.3
841.263	-0.81
841.432	0.16
841.602	-0.04
841.771	0.13
841.94	-0.08
842.11	2.01
842.279	2.33
842.448	-1.19
842.617	-0.24
842.787	1.68
842.956	0.13
843.125	0.24
843.294	0.41
843.464	1.24
843.633	0.51
843.802	-0.95
843.971	0.19
844.14	0.98
844.309	0.99
844.479	-1.36
844.648	-0.09
844.817	0.19
844.986	0.4
845.155	-0.45
845.324	0.4
845.493	0.26
845.662	-0.17
845.831	0.64
846	1.04
846.169	-0.14
846.338	0.86
846.507	0.19
846.676	0.93
846.844	0.35
847.013	1.96
847.182	1.27
847.351	0.13
847.52	0.9
847.689	1.01
847.858	-0.23
848.026	-0.04
848.195	0.93
848.364	0.36
848.533	0.09
848.701	-0.12
848.87	0.14
849.039	1.97
849.207	2.03
849.376	1.01
849.545	1.88
849.713	-0.78
849.882	-0.7
850.051	0.17
850.219	0.72
850.388	0.85
850.556	-0.12
850.725	-0.47
850.893	1.34
851.062	0.25
851.23	0.55
851.399	-0.99
851.567	0.13
851.736	0.25
851.904	-0.35
852.073	0.28
852.241	0.95
852.41	0.6
852.578	0.47
852.746	-0.29
852.915	0.63
853.083	0.5
853.251	-1.11
853.42	-0.69
853.588	0.26
853.756	1.48
853.924	0.46
854.093	0.83
854.261	0.13
854.429	-0.7
854.597	0.31
854.765	-1.06
854.934	1.41
855.102	2.21
855.27	0.87
855.438	1.39
855.606	1.96
855.774	2.16
855.942	-0.81
856.11	-0.97
856.278	0.4
856.446	0.73
856.614	0.94
856.782	-0.76
856.95	0.8
857.118	0.76
857.286	1.05
857.454	-1.38
857.622	1.34
857.79	1.98
857.958	-0.7
858.126	0.47
858.294	-2.39
858.462	-0.01
858.629	-0.42
858.797	-0.44
858.965	0.81
859.133	-0.21
859.301	-0.27
859.468	1.16
859.636	-0.31
859.804	1.43
859.971	1.68
860.139	-0.79
860.307	1.69
860.474	0.05
860.642	0.35
860.81	-0.77
860.977	0.01
861.145	1.93
861.313	-0.69
861.48	0.29
861.648	0.91
861.815	0.36
861.983	0.18
862.15	-0.56
862.318	0.25
862.485	1.81
862.653	-0.9
862.82	0.61
862.988	2.56
863.155	0.45
863.322	0.15
863.49	-1.27
863.657	0.55
863.824	2.92
863.992	1.01
864.159	1.49
864.326	2.36
864.494	0.94
864.661	1.93
864.828	-2.19
864.996	1.24
865.163	2.43
865.33	-0.76
865.497	-0.21
865.664	0.72
865.832	-1.72
865.999	-0.49
866.166	0.48
866.333	-0.08
866.5	-0.2
866.667	0.34
866.834	-0.46
867.001	2.51
867.168	-0.99
867.335	-0.38
867.502	-1.21
867.669	1.58
867.836	2.38
868.003	2.27
868.17	1.97
868.337	-0.04
868.504	2.97
868.671	-2.1
868.838	-0.51
869.005	1.75
869.172	2.16
869.339	0.43
869.505	-0.72
869.672	1.02
869.839	3.42
870.006	1.3
870.173	-2.56
870.339	0.31
870.506	2.91
870.673	-2.88
870.84	1.08
871.006	1.34
871.173	0.6
871.34	0.68
871.506	-0.46
871.673	1.18
871.839	-0.56
872.006	1.15
872.173	-1.36
872.339	-0.22
872.506	2.56
872.672	0.39
872.839	-1.62
873.005	1.64
873.172	3.07
873.338	3.16
873.505	1.13
873.671	1.91
873.838	0.96
874.004	-0.59
874.171	0.74
874.337	0.02
874.503	0.14
874.67	-1.01
874.836	0.65
875.002	3.41
875.169	3.38
875.335	1.3
875.501	0.25
875.668	0.47
875.834	1.04
876	-0.81
876.166	0.92
876.332	2.43
876.499	2.73
876.665	1.04
876.831	-0.76
876.997	5.54
877.163	3.17
877.329	-1.27
877.495	2.42
877.662	2.26
877.828	1.23
877.994	-1.36
878.16	-2.47
878.326	-1.12
878.492	1.47
878.658	2.27
878.824	0.01
878.99	3.24
879.156	0.01
879.322	4.36
879.487	-0.87
879.653	1.9
879.819	1.68
879.985	-0.88
880.151	-0.7
880.317	1.45
880.483	0.53
880.648	2.96
880.814	-2.31
880.98	1.75
881.146	-1.55
881.312	-0.22
881.477	-0.37
881.643	0.7
881.809	1.82
881.974	1.83
882.14	-0.86
882.306	-0.58
882.471	3.29
882.637	-0.78
882.803	1.82
882.968	3.41
883.134	4.87
883.299	1.39
883.465	-0.22
883.63	2.02
883.796	1.87
883.961	2.42
884.127	1.11
884.292	-3.05
884.458	-1.51
884.623	-1.5
