Data from Apollo_Calib_20240827__AbsoluteIrradiance__818__12-47-00-498.txt Node

Date: Wed Aug 28 12:47:00 BST 2024
User: biology
Spectrometer: FLMT08252
Trigger mode: 0
Integration Time (sec): 5.000000E-1
Scans to average: 5
Electric dark correction enabled: true
Nonlinearity correction enabled: false
Boxcar width: 0
XAxis mode: Wavelengths
Number of Pixels in Spectrum: 3648
>>>>>Begin Spectral Data<<<<<
179.588	-0
179.809	-0
180.03	-0
180.251	-0
180.473	-0
180.694	0
180.915	0
181.136	-0
181.357	0
181.578	-0
181.799	-0
182.02	-0
182.241	-0
182.462	-0
182.683	0
182.904	-0
183.125	-0
183.346	0
183.567	0
183.788	0
184.009	0
184.23	0
184.451	0
184.672	0
184.892	0
185.113	0
185.334	0
185.555	0
185.776	0
185.996	0
186.217	0
186.438	0
186.659	0
186.879	0
187.1	0
187.321	0
187.541	0
187.762	0
187.983	0
188.203	0
188.424	0
188.644	0
188.865	0
189.086	0
189.306	0
189.527	0
189.747	0
189.968	0
190.188	0
190.409	0
190.629	0
190.849	0
191.07	0
191.29	0
191.511	0
191.731	0
191.951	0
192.172	0
192.392	0
192.612	0
192.833	0
193.053	0
193.273	0
193.493	0
193.714	0
193.934	0
194.154	0
194.374	0
194.594	0
194.815	0
195.035	0
195.255	0
195.475	0
195.695	0
195.915	0
196.135	0
196.355	0
196.575	0
196.795	0
197.015	0
197.235	0
197.455	0
197.675	0
197.895	0
198.115	0
198.335	0
198.555	0
198.775	0
198.995	0
199.214	0
199.434	0
199.654	0
199.874	0
200.094	4.12
200.313	2.61
200.533	2.09
200.753	1.63
200.973	4.04
201.192	2.88
201.412	1.22
201.632	1.71
201.851	3.71
202.071	1.74
202.291	1.42
202.51	1.93
202.73	2.94
202.95	1.99
203.169	1.08
203.389	1.91
203.608	2.48
203.828	1.71
204.047	1.26
204.267	2.36
204.486	2.08
204.706	2.49
204.925	1.74
205.145	1.42
205.364	2.25
205.583	3
205.803	1.38
206.022	1.12
206.242	2.01
206.461	1.79
206.68	1.31
206.9	1.56
207.119	2.46
207.338	2.47
207.557	1.12
207.777	1.45
207.996	1.66
208.215	2.14
208.434	1.19
208.654	0.95
208.873	1.63
209.092	1.92
209.311	1.21
209.53	1.11
209.749	1.3
209.968	1.15
210.187	1.17
210.407	0.87
210.626	1.08
210.845	1.59
211.064	1.21
211.283	0.67
211.502	1.52
211.721	1.1
211.94	1.22
212.159	1.58
212.377	1.55
212.596	1.32
212.815	1.26
213.034	1.13
213.253	1.26
213.472	1.32
213.691	0.83
213.91	0.77
214.128	1
214.347	1.67
214.566	0.6
214.785	0.52
215.003	1.43
215.222	1.37
215.441	0.91
215.66	0.5
215.878	1
216.097	1.31
216.316	0.66
216.534	0.73
216.753	1.08
216.972	1.11
217.19	0.77
217.409	0.77
217.627	0.84
217.846	0.84
218.064	0.9
218.283	0.62
218.501	1.35
218.72	1.22
218.938	0.53
219.157	0.64
219.375	1.07
219.594	1.04
219.812	0.49
220.031	0.68
220.249	1.3
220.467	1.08
220.686	0.63
220.904	0.69
221.122	0.84
221.341	1.18
221.559	0.82
221.777	0.56
221.995	0.89
222.214	0.81
222.432	0.55
222.65	0.87
222.868	0.78
223.086	0.96
223.305	0.85
223.523	0.75
223.741	1.16
223.959	0.79
224.177	0.37
224.395	0.53
224.613	0.8
224.831	1
225.049	0.47
225.267	0.56
225.485	0.79
225.703	0.78
225.921	0.46
226.139	0.46
226.357	0.78
226.575	0.92
226.793	0.45
227.011	1.54
227.229	0.81
227.447	0.89
227.665	0.52
227.883	0.42
228.1	0.6
228.318	0.76
228.536	0.33
228.754	0.46
228.972	0.75
229.189	0.96
229.407	0.59
229.625	0.51
229.843	0.79
230.06	0.85
230.278	0.6
230.496	0.71
230.713	0.7
230.931	0.82
231.149	0.55
231.366	0.31
231.584	0.51
231.801	1.02
232.019	0.47
232.236	0.44
232.454	0.41
232.671	0.68
232.889	0.53
233.106	0.43
233.324	0.52
233.541	0.48
233.759	0.66
233.976	0.42
234.194	0.5
234.411	0.57
234.628	0.39
234.846	0.54
235.063	0.55
235.28	0.65
235.498	0.49
235.715	0.33
235.932	0.82
236.149	0.72
236.367	0.41
236.584	0.66
236.801	0.41
237.018	0.65
237.236	0.52
237.453	0.23
237.67	0.77
237.887	0.47
238.104	0.42
238.321	0.32
238.538	0.38
238.755	0.71
238.973	0.29
239.19	0.46
239.407	0.57
239.624	0.63
239.841	0.38
240.058	0.3
240.275	0.61
240.492	0.55
240.709	0.43
240.925	0.43
241.142	0.45
241.359	0.39
241.576	0.26
241.793	0.42
242.01	0.48
242.227	0.62
242.444	0.54
242.66	0.65
242.877	0.57
243.094	0.36
243.311	0.4
243.527	0.35
243.744	0.63
243.961	0.52
244.178	0.39
244.394	0.44
244.611	0.59
244.828	0.75
245.044	0.33
245.261	0.34
245.477	0.58
245.694	0.57
245.911	0.36
246.127	0.47
246.344	0.64
246.56	0.59
246.777	0.35
246.993	0.39
247.21	0.56
247.426	0.52
247.643	0.32
247.859	0.31
248.076	0.4
248.292	0.74
248.508	0.35
248.725	0.42
248.941	0.49
249.157	0.56
249.374	0.31
249.59	0.37
249.806	0.39
250.023	0.5
250.239	0.27
250.455	0.38
250.671	0.59
250.888	0.49
251.104	0.56
251.32	0.34
251.536	0.4
251.752	0.39
251.969	0.37
252.185	0.33
252.401	0.66
252.617	0.48
252.833	0.34
253.049	0.44
253.265	0.43
253.481	0.42
253.697	0.39
253.913	0.35
254.129	0.46
254.345	0.47
254.561	0.39
254.777	0.36
254.993	0.45
255.209	0.38
255.425	0.39
255.641	0.28
255.857	0.46
256.073	0.46
256.288	0.2
256.504	0.36
256.72	0.48
256.936	0.59
257.152	0.31
257.367	0.29
257.583	0.4
257.799	0.47
258.015	0.29
258.23	0.34
258.446	0.63
258.662	0.39
258.877	0.33
259.093	0.29
259.309	0.42
259.524	0.35
259.74	0.31
259.955	0.23
260.171	0.41
260.387	0.39
260.602	0.48
260.818	0.4
261.033	0.27
261.249	0.39
261.464	0.3
261.68	0.26
261.895	0.4
262.11	0.41
262.326	0.34
262.541	0.26
262.757	0.49
262.972	0.45
263.187	0.45
263.403	0.38
263.618	0.5
263.833	0.38
264.049	0.31
264.264	0.34
264.479	0.36
264.694	0.52
264.91	0.27
265.125	0.31
265.34	0.47
265.555	0.58
265.77	0.41
265.986	0.25
266.201	0.48
266.416	0.53
266.631	0.32
266.846	0.26
267.061	0.43
267.276	0.43
267.491	0.2
267.706	0.43
267.921	0.45
268.136	0.4
268.351	0.33
268.566	0.21
268.781	0.42
268.996	0.47
269.211	0.36
269.426	0.27
269.641	0.33
269.856	0.41
270.071	0.27
270.285	0.28
270.5	0.47
270.715	0.43
270.93	0.38
271.145	0.36
271.359	0.46
271.574	0.27
271.789	0.29
272.004	0.28
272.218	0.32
272.433	0.35
272.648	0.27
272.862	0.4
273.077	0.32
273.292	0.39
273.506	0.29
273.721	0.3
273.936	0.4
274.15	0.42
274.365	0.29
274.579	0.38
274.794	0.44
275.008	0.41
275.223	0.23
275.437	0.3
275.652	0.46
275.866	0.36
276.081	0.34
276.295	0.32
276.509	0.36
276.724	0.37
276.938	0.28
277.153	0.34
277.367	0.39
277.581	0.3
277.796	0.3
278.01	0.24
278.224	0.37
278.438	0.48
278.653	0.21
278.867	0.27
279.081	0.39
279.295	0.32
279.51	0.34
279.724	0.14
279.938	0.37
280.152	0.38
280.366	0.26
280.58	0.36
280.794	0.46
281.008	0.38
281.222	0.35
281.437	0.47
281.651	0.31
281.865	0.46
282.079	0.29
282.293	0.19
282.507	0.26
282.721	0.26
282.935	0.29
283.148	0.24
283.362	0.29
283.576	0.29
283.79	0.34
284.004	0.22
284.218	0.37
284.432	0.25
284.646	0.34
284.859	0.27
285.073	0.28
285.287	0.3
285.501	0.28
285.714	0.28
285.928	0.34
286.142	0.31
286.356	0.28
286.569	0.2
286.783	0.43
286.997	0.36
287.21	0.29
287.424	0.26
287.637	0.32
287.851	0.29
288.065	0.35
288.278	0.27
288.492	0.29
288.705	0.32
288.919	0.32
289.132	0.21
289.346	0.39
289.559	0.22
289.773	0.24
289.986	0.29
290.2	0.3
290.413	0.37
290.626	0.25
290.84	0.22
291.053	0.31
291.267	0.39
291.48	0.27
291.693	0.29
291.906	0.28
292.12	0.3
292.333	0.21
292.546	0.31
292.76	0.36
292.973	0.31
293.186	0.36
293.399	0.22
293.612	0.31
293.826	0.23
294.039	0.28
294.252	0.2
294.465	0.36
294.678	0.33
294.891	0.24
295.104	0.22
295.317	0.28
295.53	0.27
295.743	0.33
295.956	0.25
296.169	0.41
296.382	0.33
296.595	0.24
296.808	0.27
297.021	0.32
297.234	0.34
297.447	0.28
297.66	0.3
297.873	0.35
298.086	0.3
298.299	0.22
298.511	0.18
298.724	0.27
298.937	0.19
299.15	0.2
299.363	0.27
299.575	0.31
299.788	0.33
300.001	0.24
300.213	0.2
300.426	0.21
300.639	0.22
300.852	0.23
301.064	0.3
301.277	0.36
301.489	0.3
301.702	0.28
301.915	0.24
302.127	0.28
302.34	0.3
302.552	0.28
302.765	0.21
302.977	0.34
303.19	0.26
303.402	0.26
303.615	0.23
303.827	0.29
304.04	0.26
304.252	0.31
304.464	0.24
304.677	0.45
304.889	0.3
305.102	0.22
305.314	0.19
305.526	0.32
305.739	0.32
305.951	0.25
306.163	0.24
306.375	0.37
306.588	0.27
306.8	0.23
307.012	0.23
307.224	0.32
307.436	0.4
307.649	0.2
307.861	0.27
308.073	0.31
308.285	0.25
308.497	0.24
308.709	0.24
308.921	0.25
309.133	0.34
309.346	0.25
309.558	0.24
309.77	0.33
309.982	0.33
310.194	0.3
310.406	0.23
310.617	0.35
310.829	0.28
311.041	0.32
311.253	0.21
311.465	0.29
311.677	0.3
311.889	0.23
312.101	0.18
312.313	0.33
312.524	0.32
312.736	0.2
312.948	0.23
313.16	0.33
313.372	0.3
313.583	0.29
313.795	0.23
314.007	0.25
314.218	0.36
314.43	0.29
314.642	0.18
314.853	0.21
315.065	0.34
315.277	0.24
315.488	0.26
315.7	0.32
315.912	0.28
316.123	0.26
316.335	0.28
316.546	0.4
316.758	0.33
316.969	0.24
317.181	0.3
317.392	0.25
317.604	0.3
317.815	0.24
318.026	0.21
318.238	0.23
318.449	0.3
318.661	0.18
318.872	0.22
319.083	0.24
319.295	0.31
319.506	0.23
319.717	0.26
319.929	0.31
320.14	0.28
320.351	0.28
320.562	0.24
320.774	0.32
320.985	0.28
321.196	0.24
321.407	0.18
321.618	0.33
321.829	0.36
322.041	0.27
322.252	0.25
322.463	0.3
322.674	0.29
322.885	0.24
323.096	0.3
323.307	0.28
323.518	0.29
323.729	0.2
323.94	0.2
324.151	0.27
324.362	0.27
324.573	0.26
324.784	0.28
324.995	0.33
325.206	0.3
325.417	0.24
325.628	0.23
325.838	0.24
326.049	0.26
326.26	0.28
326.471	0.22
326.682	0.28
326.892	0.26
327.103	0.19
327.314	0.23
327.525	0.33
327.735	0.29
327.946	0.23
328.157	0.21
328.368	0.33
328.578	0.29
328.789	0.28
328.999	0.21
329.21	0.22
329.421	0.31
329.631	0.23
329.842	0.2
330.052	0.29
330.263	0.27
330.473	0.29
330.684	0.23
330.894	0.26
331.105	0.25
331.315	0.28
331.526	0.2
331.736	0.37
331.947	0.29
332.157	0.31
332.367	0.2
332.578	0.31
332.788	0.31
332.999	0.28
333.209	0.25
333.419	0.19
333.629	0.31
333.84	0.29
334.05	0.24
334.26	0.36
334.47	0.3
334.681	0.26
334.891	0.26
335.101	0.32
335.311	0.37
335.521	0.24
335.732	0.23
335.942	0.31
336.152	0.27
336.362	0.25
336.572	0.27
336.782	0.32
336.992	0.22
337.202	0.25
337.412	0.26
337.622	0.25
337.832	0.24
338.042	0.24
338.252	0.18
338.462	0.3
338.672	0.3
338.882	0.25
339.092	0.25
339.302	0.33
339.511	0.31
339.721	0.26
339.931	0.21
340.141	0.28
340.351	0.3
340.561	0.29
340.77	0.28
340.98	0.28
341.19	0.28
341.4	0.23
341.609	0.22
341.819	0.3
342.029	0.2
342.238	0.28
342.448	0.26
342.658	0.3
342.867	0.26
343.077	0.23
343.286	0.25
343.496	0.28
343.706	0.36
343.915	0.23
344.125	0.3
344.334	0.29
344.544	0.22
344.753	0.23
344.963	0.21
345.172	0.23
345.381	0.22
345.591	0.19
345.8	0.23
346.01	0.34
346.219	0.36
346.428	0.22
346.638	0.21
346.847	0.25
347.056	0.36
347.266	0.24
347.475	0.21
347.684	0.26
347.893	0.32
348.103	0.29
348.312	0.26
348.521	0.28
348.73	0.28
348.94	0.28
349.149	0.22
349.358	0.24
349.567	0.24
349.776	0.19
349.985	0.22
350.194	0.31
350.403	0.31
350.612	0.17
350.821	0.2
351.03	0.28
351.239	0.23
351.448	0.26
351.657	0.25
351.866	0.35
352.075	0.25
352.284	0.2
352.493	0.2
352.702	0.33
352.911	0.26
353.12	0.27
353.329	0.24
353.538	0.3
353.746	0.27
353.955	0.25
354.164	0.21
354.373	0.23
354.582	0.3
354.79	0.26
354.999	0.35
355.208	0.21
355.416	0.37
355.625	0.17
355.834	0.25
356.042	0.27
356.251	0.2
356.46	0.19
356.668	0.3
356.877	0.38
357.085	0.3
357.294	0.12
357.503	0.27
357.711	0.29
357.92	0.43
358.128	0.26
358.337	0.23
358.545	0.31
358.754	0.22
358.962	0.3
359.17	0.22
359.379	0.28
359.587	0.29
359.796	0.28
360.004	0.28
360.212	0.27
360.421	0.32
360.629	0.24
360.837	0.26
361.046	0.29
361.254	0.41
361.462	0.24
361.67	0.26
361.879	0.29
362.087	0.33
362.295	0.24
362.503	0.22
362.711	0.21
362.92	0.23
363.128	0.22
363.336	0.2
363.544	0.22
363.752	0.22
363.96	0.2
364.168	0.22
364.376	0.25
364.584	0.29
364.792	0.35
365	0.24
365.208	0.29
365.416	0.3
365.624	0.34
365.832	0.22
366.04	0.31
366.248	0.28
366.456	0.28
366.664	0.22
366.872	0.27
367.079	0.2
367.287	0.25
367.495	0.26
367.703	0.21
367.911	0.26
368.118	0.26
368.326	0.23
368.534	0.22
368.742	0.38
368.949	0.17
369.157	0.19
369.365	0.27
369.572	0.23
369.78	0.19
369.988	0.31
370.195	0.25
370.403	0.29
370.61	0.21
370.818	0.31
371.026	0.33
371.233	0.24
371.441	0.25
371.648	0.23
371.856	0.3
372.063	0.28
372.271	0.25
372.478	0.25
372.685	0.26
372.893	0.3
373.1	0.26
373.308	0.21
373.515	0.37
373.722	0.36
373.93	0.29
374.137	0.29
374.344	0.33
374.552	0.29
374.759	0.3
374.966	0.25
375.173	0.25
375.381	0.31
375.588	0.26
375.795	0.2
376.002	0.28
376.209	0.24
376.417	0.24
376.624	0.28
376.831	0.36
377.038	0.27
377.245	0.18
377.452	0.24
377.659	0.28
377.866	0.23
378.073	0.26
378.28	0.26
378.487	0.31
378.694	0.29
378.901	0.22
379.108	0.23
379.315	0.29
379.522	0.39
379.729	0.28
379.936	0.24
380.143	0.28
380.35	0.32
380.557	0.26
380.763	0.28
380.97	0.3
381.177	0.28
381.384	0.3
381.591	0.27
381.797	0.27
382.004	0.29
382.211	0.3
382.418	0.26
382.624	0.3
382.831	0.35
383.038	0.24
383.244	0.3
383.451	0.27
383.658	0.31
383.864	0.25
384.071	0.24
384.277	0.41
384.484	0.27
384.69	0.35
384.897	0.27
385.103	0.3
385.31	0.29
385.516	0.24
385.723	0.23
385.929	0.29
386.136	0.24
386.342	0.34
386.549	0.25
386.755	0.35
386.961	0.31
387.168	0.27
387.374	0.29
387.58	0.32
387.787	0.29
387.993	0.3
388.199	0.27
388.406	0.24
388.612	0.33
388.818	0.26
389.024	0.23
389.231	0.27
389.437	0.4
389.643	0.34
389.849	0.33
390.055	0.3
390.261	0.33
390.467	0.38
390.674	0.27
390.88	0.32
391.086	0.33
391.292	0.25
391.498	0.34
391.704	0.38
391.91	0.28
392.116	0.3
392.322	0.2
392.528	0.35
392.734	0.28
392.94	0.35
393.146	0.27
393.352	0.32
393.557	0.29
393.763	0.28
393.969	0.35
394.175	0.35
394.381	0.32
394.587	0.28
394.792	0.31
394.998	0.4
395.204	0.37
395.41	0.27
395.615	0.32
395.821	0.35
396.027	0.36
396.233	0.29
396.438	0.36
396.644	0.37
396.85	0.35
397.055	0.32
397.261	0.38
397.466	0.33
397.672	0.38
397.878	0.35
398.083	0.37
398.289	0.31
398.494	0.38
398.7	0.37
398.905	0.26
399.111	0.44
399.316	0.26
399.522	0.33
399.727	0.34
399.932	0.35
400.138	0.35
400.343	0.38
400.549	0.34
400.754	0.37
400.959	0.36
401.165	0.34
401.37	0.38
401.575	0.35
401.78	0.39
401.986	0.34
402.191	0.35
402.396	0.41
402.601	0.41
402.807	0.44
403.012	0.41
403.217	0.44
403.422	0.44
403.627	0.45
403.832	0.39
404.037	0.47
404.243	0.48
404.448	0.37
404.653	0.43
404.858	0.45
405.063	0.48
405.268	0.43
405.473	0.41
405.678	0.43
405.883	0.6
406.088	0.49
406.293	0.4
406.498	0.47
406.703	0.53
406.907	0.48
407.112	0.46
407.317	0.53
407.522	0.61
407.727	0.45
407.932	0.56
408.136	0.63
408.341	0.53
408.546	0.54
408.751	0.59
408.956	0.57
409.16	0.67
409.365	0.6
409.57	0.65
409.774	0.63
409.979	0.71
410.184	0.68
410.388	0.65
410.593	0.79
410.798	0.7
411.002	0.71
411.207	0.84
411.411	0.81
411.616	0.75
411.82	0.79
412.025	0.86
412.229	0.83
412.434	0.94
412.638	0.89
412.843	0.88
413.047	0.95
413.252	0.95
413.456	1.02
413.66	1.04
413.865	1.07
414.069	1.11
414.273	1.05
414.478	1.08
414.682	1.17
414.886	1.25
415.091	1.19
415.295	1.11
415.499	1.41
415.703	1.31
415.908	1.37
416.112	1.38
416.316	1.51
416.52	1.55
416.724	1.5
416.929	1.53
417.133	1.81
417.337	1.72
417.541	1.74
417.745	1.76
417.949	1.88
418.153	1.97
418.357	1.91
418.561	2.22
418.765	2.16
418.969	2.3
419.173	2.31
419.377	2.27
419.581	2.55
419.785	2.56
419.989	2.52
420.193	2.69
420.397	2.79
420.601	2.94
420.804	2.99
421.008	3.01
421.212	3.18
421.416	3.16
421.62	3.17
421.823	3.21
422.027	3.43
422.231	3.36
422.435	3.32
422.638	3.41
422.842	3.57
423.046	3.58
423.249	3.79
423.453	3.79
423.657	4.02
423.86	3.97
424.064	4.16
424.268	4.31
424.471	4.25
424.675	4.54
424.878	4.54
425.082	4.63
425.285	5.04
425.489	4.97
425.692	5
425.896	5.12
426.099	5.26
426.303	5.35
426.506	5.55
426.71	5.69
426.913	5.93
427.116	6.11
427.32	6.01
427.523	6.22
427.726	6.48
427.93	6.56
428.133	6.93
428.336	7.01
428.54	7.17
428.743	7.37
428.946	7.73
429.149	7.64
429.353	7.62
429.556	7.77
429.759	7.81
429.962	7.96
430.165	8.07
430.368	7.69
430.571	7.82
430.775	7.87
430.978	7.78
431.181	7.94
431.384	8.04
431.587	8.09
431.79	8.38
431.993	8.28
432.196	8.62
432.399	9.03
432.602	9.24
432.805	9.38
433.008	9.83
433.211	9.71
433.414	10.12
433.616	10.06
433.819	10.17
434.022	10.3
434.225	10.41
434.428	10.4
434.631	10.86
434.833	10.51
435.036	10.8
435.239	10.99
435.442	11.17
435.645	11.19
435.847	11.38
436.05	11.67
436.253	11.98
436.455	11.75
436.658	11.72
436.861	12.18
437.063	12.21
437.266	12.17
437.468	12.47
437.671	12.84
437.874	12.91
438.076	12.56
438.279	13.09
438.481	13.19
438.684	14
438.886	13.6
439.089	13.79
439.291	13.88
439.494	14.16
439.696	14.38
439.899	14.8
440.101	15.44
440.303	15.35
440.506	16.24
440.708	15.93
440.91	16.12
441.113	16.29
441.315	16.61
441.517	16.46
441.72	16.84
441.922	16.45
442.124	16.53
442.326	16.92
442.529	17.08
442.731	16.98
442.933	17.43
443.135	17.07
443.337	17.14
443.539	17.93
443.742	17.27
443.944	18.01
444.146	17.69
444.348	17.85
444.55	17.65
444.752	17.84
444.954	17.9
445.156	17.56
445.358	18.12
445.56	18.49
445.762	18.29
445.964	18.57
446.166	18.25
446.368	18.33
446.57	18.49
446.772	18.05
446.974	17.8
447.175	18.1
447.377	17.83
447.579	18.2
447.781	17.86
447.983	17.72
448.184	17.14
448.386	17.67
448.588	17.23
448.79	17.06
448.991	17.44
449.193	17.45
449.395	16.75
449.597	16.45
449.798	16.42
450	15.88
450.202	15.92
450.403	15.97
450.605	15.82
450.806	15.48
451.008	15.18
451.21	14.98
451.411	14.54
451.613	13.91
451.814	14.14
452.016	14.14
452.217	13.44
452.419	13.5
452.62	13.06
452.821	12.95
453.023	12.83
453.224	12.45
453.426	11.9
453.627	11.19
453.828	11.48
454.03	11.38
454.231	11.42
454.432	11.2
454.634	10.98
454.835	10.71
455.036	10.57
455.238	10.17
455.439	10.05
455.64	9.72
455.841	9.59
456.042	9.73
456.244	9.39
456.445	9.03
456.646	8.88
456.847	8.72
457.048	8.64
457.249	8.61
457.45	8.48
457.651	7.95
457.852	7.81
458.054	7.41
458.255	7.35
458.456	7.5
458.657	7.26
458.858	6.81
459.058	6.8
459.259	6.86
459.46	6.56
459.661	6.54
459.862	6.63
460.063	6.45
460.264	6.37
460.465	6.17
460.666	6.2
460.866	5.85
461.067	5.63
461.268	5.65
461.469	5.54
461.67	5.42
461.87	5.28
462.071	5.42
462.272	5.22
462.473	5.11
462.673	5.4
462.874	5.31
463.075	5.26
463.275	5.2
463.476	5.11
463.676	5.21
463.877	5.04
464.078	5.07
464.278	5.11
464.479	4.95
464.679	4.9
464.88	4.76
465.08	4.76
465.281	4.58
465.481	4.41
465.682	4.19
465.882	4.25
466.083	4.25
466.283	4.13
466.483	3.96
466.684	3.88
466.884	3.75
467.085	3.76
467.285	3.82
467.485	3.75
467.686	3.69
467.886	3.51
468.086	3.46
468.286	3.45
468.487	3.47
468.687	3.37
468.887	3.29
469.087	3.47
469.287	3.31
469.488	3.1
469.688	3.27
469.888	3.3
470.088	3.21
470.288	3.1
470.488	3.19
470.688	2.97
470.888	2.94
471.088	2.75
471.288	2.89
471.488	2.91
471.688	2.78
471.888	2.77
472.088	2.88
472.288	2.82
472.488	2.65
472.688	2.65
472.888	2.69
473.088	2.66
473.288	2.59
473.488	2.53
473.688	2.7
473.887	2.54
474.087	2.48
474.287	2.51
474.487	2.45
474.687	2.44
474.886	2.41
475.086	2.4
475.286	2.4
475.486	2.32
475.685	2.28
475.885	2.28
476.085	2.33
476.284	2.37
476.484	2.3
476.684	2.24
476.883	2.3
477.083	2.23
477.282	2.16
477.482	2.29
477.681	2.2
477.881	2.14
478.08	2.13
478.28	2.12
478.479	2.12
478.679	2.22
478.878	2.12
479.078	2.09
479.277	2.13
479.477	2.13
479.676	2.05
479.875	2.04
480.075	2.02
480.274	2.02
480.473	2.1
480.673	2.01
480.872	2.14
481.071	2.08
481.271	2.08
481.47	2.01
481.669	2.04
481.868	1.94
482.067	2.02
482.267	1.96
482.466	1.98
482.665	1.98
482.864	1.98
483.063	1.99
483.262	2.07
483.461	2.12
483.661	2.09
483.86	2.05
484.059	2.12
484.258	2.04
484.457	2.03
484.656	2.04
484.855	2.14
485.054	1.96
485.253	2.02
485.452	1.97
485.651	2.01
485.849	2.05
486.048	2.01
486.247	2.04
486.446	2.15
486.645	2.04
486.844	2.11
487.043	2.08
487.241	2.1
487.44	2.11
487.639	2.15
487.838	2.13
488.037	2.15
488.235	2.22
488.434	2.18
488.633	2.09
488.831	2.24
489.03	2.23
489.229	2.23
489.427	2.25
489.626	2.3
489.825	2.33
490.023	2.31
490.222	2.29
490.42	2.37
490.619	2.34
490.817	2.38
491.016	2.35
491.214	2.45
491.413	2.4
491.611	2.37
491.81	2.44
492.008	2.45
492.207	2.57
492.405	2.55
492.604	2.44
492.802	2.56
493	2.6
493.199	2.65
493.397	2.63
493.595	2.7
493.794	2.7
493.992	2.76
494.19	2.71
494.388	2.83
494.587	2.77
494.785	2.8
494.983	2.73
495.181	2.91
495.379	2.9
495.578	2.96
495.776	2.94
495.974	2.94
496.172	2.96
496.37	3.09
496.568	3.07
496.766	3.08
496.964	3.16
497.162	3.18
497.36	3.19
497.558	3.24
497.756	3.29
497.954	3.28
498.152	3.38
498.35	3.42
498.548	3.36
498.746	3.43
498.944	3.39
499.142	3.41
499.34	3.53
499.538	3.63
499.736	3.52
499.933	3.64
500.131	3.65
500.329	3.77
500.527	3.72
500.725	3.84
500.922	3.88
501.12	3.86
501.318	3.92
501.516	3.9
501.713	4.03
501.911	3.96
502.109	3.97
502.306	4.09
502.504	4
502.701	4.06
502.899	4.16
503.097	4.31
503.294	4.21
503.492	4.37
503.689	4.34
503.887	4.32
504.084	4.46
504.282	4.42
504.479	4.41
504.677	4.55
504.874	4.49
505.072	4.42
505.269	4.62
505.466	4.67
505.664	4.69
505.861	4.61
506.059	4.69
506.256	4.75
506.453	4.87
506.651	4.92
506.848	4.97
507.045	4.91
507.242	4.98
507.44	5
507.637	5.1
507.834	5.05
508.031	5.18
508.229	5.09
508.426	5.08
508.623	5.22
508.82	5.25
509.017	5.29
509.214	5.22
509.411	5.33
509.608	5.31
509.805	5.43
510.003	5.39
510.2	5.45
510.397	5.66
510.594	5.52
510.791	5.58
510.988	5.57
511.184	5.59
511.381	5.47
511.578	5.61
511.775	5.78
511.972	5.7
512.169	5.85
512.366	5.83
512.563	5.94
512.76	5.95
512.956	5.99
513.153	5.89
513.35	5.91
513.547	5.88
513.744	5.99
513.94	6.01
514.137	6.12
514.334	6.06
514.53	6.14
514.727	6.31
514.924	6.2
515.12	6.2
515.317	6.26
515.514	6.18
515.71	6.14
515.907	6.41
516.103	6.43
516.3	6.31
516.497	6.45
516.693	6.5
516.89	6.42
517.086	6.42
517.283	6.52
517.479	6.4
517.676	6.58
517.872	6.6
518.068	6.58
518.265	6.62
518.461	6.5
518.658	6.66
518.854	6.63
519.05	6.75
519.247	6.76
519.443	6.66
519.639	6.89
519.836	6.78
520.032	6.74
520.228	6.83
520.424	6.83
520.621	6.91
520.817	6.94
521.013	6.88
521.209	7.05
521.405	7.02
521.601	7.02
521.798	6.94
521.994	7
522.19	6.92
522.386	6.93
522.582	7.05
522.778	7.2
522.974	7.06
523.17	7.1
523.366	7.06
523.562	7.18
523.758	7.17
523.954	7
524.15	7.16
524.346	7.22
524.542	7.22
524.738	7.15
524.934	7.32
525.129	7.2
525.325	7.22
525.521	7.17
525.717	7.4
525.913	7.25
526.109	7.33
526.304	7.46
526.5	7.41
526.696	7.47
526.892	7.38
527.087	7.53
527.283	7.43
527.479	7.42
527.674	7.26
527.87	7.42
528.066	7.47
528.261	7.51
528.457	7.4
528.653	7.57
528.848	7.57
529.044	7.67
529.239	7.5
529.435	7.53
529.63	7.5
529.826	7.54
530.021	7.55
530.217	7.6
530.412	7.61
530.608	7.58
530.803	7.56
530.999	7.5
531.194	7.51
531.389	7.65
531.585	7.65
531.78	7.81
531.975	7.66
532.171	7.74
532.366	7.73
532.561	7.65
532.757	7.67
532.952	7.77
533.147	7.57
533.342	7.77
533.538	7.65
533.733	7.93
533.928	7.57
534.123	7.77
534.318	7.77
534.513	7.71
534.709	7.84
534.904	7.81
535.099	7.89
535.294	7.93
535.489	7.87
535.684	7.79
535.879	7.87
536.074	7.84
536.269	7.88
536.464	7.92
536.659	7.79
536.854	7.86
537.049	7.94
537.244	7.86
537.439	7.82
537.634	7.87
537.828	7.95
538.023	7.9
538.218	7.89
538.413	7.79
538.608	7.89
538.803	7.89
538.997	7.85
539.192	7.95
539.387	7.9
539.582	7.92
539.776	7.86
539.971	7.99
540.166	8.02
540.36	7.86
540.555	8.01
540.75	7.93
540.944	7.93
541.139	7.97
541.334	7.98
541.528	7.97
541.723	8.02
541.917	8.03
542.112	7.91
542.306	7.86
542.501	7.86
542.695	7.92
542.89	7.92
543.084	8.01
543.279	8.04
543.473	8.05
543.668	8.08
543.862	7.86
544.056	7.86
544.251	8
544.445	8.05
544.64	8.1
544.834	7.79
545.028	7.65
545.222	7.99
545.417	8.21
545.611	8.11
545.805	8.01
546	7.86
546.194	8.07
546.388	8.06
546.582	7.98
546.776	8
546.97	8.04
547.165	8
547.359	8
547.553	7.94
547.747	8.03
547.941	8.2
548.135	8.01
548.329	8.1
548.523	8.08
548.717	8.01
548.911	7.96
549.105	7.95
549.299	8.13
549.493	8.07
549.687	7.89
549.881	8.11
550.075	8.04
550.269	7.87
550.463	8.13
550.657	8.11
550.85	8.01
551.044	8.01
551.238	8.09
551.432	8.07
551.626	8.11
551.82	8.12
552.013	7.94
552.207	8.16
552.401	8.17
552.594	8
552.788	8.04
552.982	8
553.176	7.97
553.369	8.22
553.563	8.09
553.756	8.07
553.95	8.08
554.144	8.1
554.337	8.15
554.531	7.97
554.724	8.12
554.918	8.12
555.111	8.01
555.305	8.12
555.498	8.04
555.692	8.18
555.885	8.12
556.079	8.06
556.272	8.08
556.466	8.05
556.659	8.04
556.852	8.1
557.046	7.97
557.239	7.87
557.432	8.04
557.626	8.11
557.819	8.18
558.012	8.13
558.206	8.15
558.399	8.08
558.592	8.04
558.785	8.08
558.979	8.05
559.172	8.05
559.365	8.11
559.558	8.02
559.751	7.98
559.944	8.2
560.138	8.02
560.331	8.05
560.524	8.17
560.717	8.06
560.91	8.13
561.103	8.1
561.296	7.96
561.489	8.14
561.682	8.15
561.875	8.09
562.068	8.18
562.261	7.94
562.454	8.22
562.647	8.01
562.84	8.07
563.032	8.11
563.225	8.06
563.418	8.07
563.611	8.12
563.804	8.07
563.997	7.96
564.19	7.84
564.382	8.16
564.575	8.08
564.768	8.05
564.961	8.06
565.153	8.04
565.346	7.97
565.539	8.12
565.731	8.08
565.924	8.2
566.117	8.15
566.309	8.07
566.502	8.04
566.695	7.96
566.887	8.09
567.08	8.03
567.272	8.09
567.465	7.93
567.657	8.08
567.85	7.97
568.042	8.08
568.235	8.11
568.427	7.89
568.62	8.05
568.812	7.99
569.005	8.05
569.197	7.94
569.389	8.04
569.582	8.03
569.774	7.99
569.966	7.95
570.159	7.94
570.351	7.92
570.543	7.96
570.736	8.02
570.928	7.81
571.12	8.02
571.312	7.94
571.505	7.7
571.697	8
571.889	7.97
572.081	8.02
572.273	7.93
572.465	7.95
572.658	7.98
572.85	7.96
573.042	7.98
573.234	7.83
573.426	7.93
573.618	7.91
573.81	7.96
574.002	7.95
574.194	7.95
574.386	7.88
574.578	7.76
574.77	7.9
574.962	7.9
575.154	7.78
575.346	7.8
575.538	7.8
575.729	7.8
575.921	7.89
576.113	7.88
576.305	7.87
576.497	7.95
576.689	7.75
576.88	7.7
577.072	7.9
577.264	7.84
577.456	7.86
577.647	7.76
577.839	7.94
578.031	7.78
578.223	7.76
578.414	7.7
578.606	7.83
578.798	7.88
578.989	7.8
579.181	7.86
579.372	7.79
579.564	7.77
579.755	7.8
579.947	7.7
580.139	7.76
580.33	7.61
580.522	7.75
580.713	7.72
580.905	7.69
581.096	7.81
581.287	7.69
581.479	7.77
581.67	7.73
581.862	7.67
582.053	7.71
582.244	7.52
582.436	7.69
582.627	7.56
582.818	7.56
583.01	7.6
583.201	7.65
583.392	7.6
583.583	7.55
583.775	7.45
583.966	7.6
584.157	7.58
584.348	7.76
584.54	7.46
584.731	7.55
584.922	7.49
585.113	7.39
585.304	7.5
585.495	7.47
585.686	7.59
585.877	7.56
586.068	7.59
586.259	7.57
586.45	7.51
586.641	7.42
586.832	7.57
587.023	7.46
587.214	7.4
587.405	7.51
587.596	7.37
587.787	7.36
587.978	7.41
588.169	7.34
588.36	7.33
588.551	7.38
588.742	7.34
588.932	7.42
589.123	7.24
589.314	7.43
589.505	7.31
589.696	7.35
589.886	7.3
590.077	7.31
590.268	7.18
590.458	7.21
590.649	7.11
590.84	7.23
591.03	7.21
591.221	7.24
591.412	7.12
591.602	7.33
591.793	7.22
591.984	7.18
592.174	7.23
592.365	7.32
592.555	7.02
592.746	7.1
592.936	7.09
593.127	7.18
593.317	7.23
593.508	7.11
593.698	7.07
593.889	7.04
594.079	7.08
594.269	6.97
594.46	6.98
594.65	7.06
594.84	7.08
595.031	6.92
595.221	7
595.411	6.92
595.602	7.01
595.792	6.88
595.982	6.79
596.172	7.04
596.363	6.86
596.553	6.89
596.743	6.89
596.933	6.86
597.123	6.88
597.314	6.72
597.504	6.75
597.694	6.89
597.884	6.79
598.074	6.84
598.264	6.76
598.454	6.78
598.644	6.71
598.834	6.7
599.024	6.68
599.214	6.68
599.404	6.78
599.594	6.65
599.784	6.59
599.974	6.77
600.164	6.69
600.354	6.57
600.544	6.58
600.734	6.57
600.924	6.55
601.114	6.47
601.303	6.48
601.493	6.55
601.683	6.5
601.873	6.46
602.063	6.4
602.252	6.47
602.442	6.49
602.632	6.35
602.821	6.33
603.011	6.44
603.201	6.47
603.39	6.32
603.58	6.25
603.77	6.32
603.959	6.36
604.149	6.3
604.339	6.33
604.528	6.42
604.718	6.41
604.907	6.22
605.097	6.23
605.286	6.23
605.476	6.23
605.665	6.19
605.855	6.14
606.044	6.26
606.234	6.22
606.423	6.14
606.612	6.12
606.802	6.06
606.991	6.13
607.181	6.18
607.37	6.16
607.559	5.87
607.749	6.09
607.938	6.01
608.127	6.05
608.316	6.03
608.506	6.03
608.695	6.02
608.884	5.96
609.073	5.95
609.263	6
609.452	5.93
609.641	5.86
609.83	5.81
610.019	5.9
610.208	5.78
610.397	5.78
610.586	5.89
610.775	5.78
610.965	5.78
611.154	5.69
611.343	5.73
611.532	5.68
611.721	5.73
611.91	5.64
612.099	5.68
612.287	5.63
612.476	5.51
612.665	5.7
612.854	5.56
613.043	5.61
613.232	5.58
613.421	5.51
613.61	5.51
613.798	5.53
613.987	5.55
614.176	5.53
614.365	5.53
614.554	5.47
614.742	5.58
614.931	5.37
615.12	5.55
615.309	5.42
615.497	5.38
615.686	5.23
615.875	5.35
616.063	5.32
616.252	5.35
616.44	5.29
616.629	5.26
616.818	5.25
617.006	5.21
617.195	5.21
617.383	5.23
617.572	5.16
617.76	5.17
617.949	5.14
618.137	5.25
618.326	5.21
618.514	4.96
618.703	4.97
618.891	5.2
619.079	4.98
619.268	5.13
619.456	4.97
619.644	5.08
619.833	5.01
620.021	5.02
620.209	4.85
620.398	5
620.586	4.9
620.774	5
620.962	4.9
621.151	5.02
621.339	4.85
621.527	4.83
621.715	4.82
621.903	4.8
622.092	4.75
622.28	4.89
622.468	4.66
622.656	4.77
622.844	4.69
623.032	4.79
623.22	4.63
623.408	4.78
623.596	4.71
623.784	4.76
623.972	4.6
624.16	4.65
624.348	4.72
624.536	4.71
624.724	4.49
624.912	4.6
625.1	4.62
625.288	4.51
625.476	4.43
625.664	4.6
625.851	4.5
626.039	4.51
626.227	4.47
626.415	4.52
626.603	4.39
626.79	4.47
626.978	4.46
627.166	4.47
627.354	4.35
627.541	4.33
627.729	4.2
627.917	4.47
628.104	4.4
628.292	4.34
628.48	4.3
628.667	4.28
628.855	4.37
629.042	4.31
629.23	4.21
629.418	4.24
629.605	4.24
629.793	4.14
629.98	4.15
630.168	4.15
630.355	4.21
630.543	4.14
630.73	4.08
630.917	4.07
631.105	4.24
631.292	4.11
631.48	4.11
631.667	4.22
631.854	4.02
632.042	4.05
632.229	3.93
632.416	4.07
632.604	3.98
632.791	3.85
632.978	3.99
633.165	3.93
633.353	4.02
633.54	3.95
633.727	3.82
633.914	3.84
634.101	3.77
634.289	3.89
634.476	3.81
634.663	3.76
634.85	3.74
635.037	3.73
635.224	3.68
635.411	3.78
635.598	3.76
635.785	3.72
635.972	3.61
636.159	3.72
636.346	3.62
636.533	3.65
636.72	3.68
636.907	3.63
637.094	3.57
637.281	3.47
637.468	3.58
637.655	3.58
637.842	3.56
638.029	3.5
638.215	3.53
638.402	3.5
638.589	3.44
638.776	3.43
638.963	3.37
639.149	3.52
639.336	3.51
639.523	3.42
639.709	3.35
639.896	3.4
640.083	3.43
640.27	3.4
640.456	3.38
640.643	3.31
640.829	3.19
641.016	3.28
641.203	3.2
641.389	3.35
641.576	3.24
641.762	3.23
641.949	3.24
642.135	3.25
642.322	3.18
642.508	3.15
642.695	3.19
642.881	3.15
643.068	3.13
643.254	3.1
643.441	3.18
643.627	3.18
643.813	3.02
644	3.12
644.186	3.02
644.372	3.11
644.559	3.09
644.745	2.99
644.931	3.01
645.118	3.08
645.304	3.02
645.49	3
645.676	2.96
645.862	3.02
646.049	3
646.235	2.9
646.421	3.03
646.607	3.02
646.793	2.87
646.979	2.84
647.165	2.93
647.352	2.88
647.538	2.9
647.724	2.89
647.91	2.8
648.096	2.85
648.282	2.88
648.468	2.78
648.654	2.83
648.84	2.84
649.026	2.83
649.212	2.74
649.397	2.66
649.583	2.69
649.769	2.72
649.955	2.71
650.141	2.71
650.327	2.69
650.513	2.61
650.698	2.71
650.884	2.52
651.07	2.67
651.256	2.67
651.442	2.59
651.627	2.55
651.813	2.61
651.999	2.57
652.184	2.57
652.37	2.55
652.556	2.51
652.741	2.58
652.927	2.39
653.113	2.5
653.298	2.49
653.484	2.48
653.669	2.41
653.855	2.43
654.04	2.55
654.226	2.44
654.412	2.4
654.597	2.35
654.782	2.48
654.968	2.46
655.153	2.38
655.339	2.34
655.524	2.36
655.71	2.4
655.895	2.3
656.08	2.31
656.266	2.42
656.451	2.27
656.636	2.28
656.822	2.27
657.007	2.24
657.192	2.26
657.378	2.2
657.563	2.22
657.748	2.28
657.933	2.26
658.118	2.16
658.304	2.22
658.489	2.31
658.674	2.19
658.859	2.12
659.044	2.15
659.229	2.23
659.414	2.15
659.599	2.15
659.785	2.03
659.97	2.15
660.155	2.13
660.34	2.11
660.525	2.05
660.71	2.12
660.895	2.15
661.08	2.03
661.264	2.02
661.449	2.14
661.634	2.06
661.819	2.07
662.004	2.06
662.189	1.98
662.374	1.95
662.559	1.92
662.743	1.88
662.928	1.98
663.113	1.93
663.298	1.88
663.483	1.91
663.667	1.93
663.852	1.92
664.037	1.98
664.221	1.86
664.406	1.97
664.591	1.97
664.775	1.93
664.96	1.9
665.145	1.88
665.329	1.94
665.514	1.84
665.698	1.83
665.883	1.73
666.068	1.86
666.252	1.79
666.437	1.76
666.621	1.79
666.806	1.86
666.99	1.78
667.174	1.76
667.359	1.86
667.543	1.73
667.728	1.78
667.912	1.63
668.096	1.78
668.281	1.72
668.465	1.77
668.649	1.75
668.834	1.65
669.018	1.75
669.202	1.7
669.387	1.65
669.571	1.76
669.755	1.66
669.939	1.72
670.124	1.61
670.308	1.65
670.492	1.69
670.676	1.66
670.86	1.67
671.044	1.57
671.228	1.69
671.413	1.53
671.597	1.51
671.781	1.58
671.965	1.63
672.149	1.58
672.333	1.57
672.517	1.58
672.701	1.6
672.885	1.54
673.069	1.44
673.253	1.58
673.437	1.52
673.621	1.53
673.804	1.53
673.988	1.56
674.172	1.48
674.356	1.4
674.54	1.46
674.724	1.59
674.908	1.47
675.091	1.52
675.275	1.48
675.459	1.59
675.643	1.45
675.826	1.46
676.01	1.43
676.194	1.49
676.377	1.51
676.561	1.48
676.745	1.43
676.928	1.52
677.112	1.46
677.296	1.34
677.479	1.36
677.663	1.38
677.846	1.39
678.03	1.36
678.213	1.29
678.397	1.32
678.58	1.35
678.764	1.33
678.947	1.31
679.131	1.34
679.314	1.46
679.498	1.39
679.681	1.39
679.865	1.45
680.048	1.33
680.231	1.3
680.415	1.31
680.598	1.3
680.781	1.29
680.965	1.29
681.148	1.29
681.331	1.25
681.514	1.32
681.698	1.26
681.881	1.26
682.064	1.3
682.247	1.28
682.43	1.16
682.614	1.21
682.797	1.33
682.98	1.29
683.163	1.16
683.346	1.22
683.529	1.17
683.712	1.14
683.895	1.3
684.078	1.14
684.261	1.16
684.444	1.22
684.627	1.23
684.81	1.15
684.993	1.2
685.176	1.23
685.359	1.1
685.542	1.1
685.725	1.29
685.908	1.18
686.091	1.08
686.274	1.16
686.457	1.18
686.639	1.13
686.822	1.14
687.005	1.12
687.188	1.17
687.371	1.26
687.553	1.2
687.736	1.12
687.919	1.27
688.102	1.22
688.284	1.09
688.467	1.06
688.65	1.11
688.832	1
689.015	1.04
689.197	0.96
689.38	1.19
689.563	1.21
689.745	0.97
689.928	1.02
690.11	1.06
690.293	1.05
690.475	0.96
690.658	1.03
690.84	1.05
691.023	0.99
691.205	0.94
691.388	1
691.57	1.05
691.752	1.07
691.935	0.86
692.117	0.98
692.3	1.05
692.482	1
692.664	0.94
692.847	0.96
693.029	1.06
693.211	1.02
693.393	0.94
693.576	0.95
693.758	0.99
693.94	0.96
694.122	0.93
694.304	0.92
694.487	0.91
694.669	1.01
694.851	0.89
695.033	0.9
695.215	0.96
695.397	0.88
695.579	0.89
695.761	0.82
695.943	0.83
696.125	0.97
696.308	0.96
696.49	0.75
696.671	1.07
696.853	0.85
697.035	1.13
697.217	0.87
697.399	0.98
697.581	0.84
697.763	0.89
697.945	0.76
698.127	0.95
698.309	0.96
698.491	0.85
698.672	0.89
698.854	0.91
699.036	0.97
699.218	0.78
699.399	0.89
699.581	0.93
699.763	0.83
699.945	0.74
700.126	0.77
700.308	0.82
700.49	0.88
700.671	0.71
700.853	0.78
701.035	0.78
701.216	0.83
701.398	0.78
701.579	0.8
701.761	0.88
701.943	0.79
702.124	0.75
702.306	0.73
702.487	0.97
702.669	0.83
702.85	0.77
703.031	0.7
703.213	0.86
703.394	0.87
703.576	0.74
703.757	0.93
703.938	0.86
704.12	0.93
704.301	0.78
704.483	0.69
704.664	0.78
704.845	0.88
705.026	0.85
705.208	0.69
705.389	0.81
705.57	0.79
705.751	0.75
705.933	0.81
706.114	0.86
706.295	0.75
706.476	0.68
706.657	0.87
706.838	0.81
707.02	0.87
707.201	0.7
707.382	0.72
707.563	0.78
707.744	0.68
707.925	0.64
708.106	0.68
708.287	0.76
708.468	0.87
708.649	0.8
708.83	0.75
709.011	0.71
709.192	0.81
709.373	0.57
709.554	0.72
709.734	0.72
709.915	0.82
710.096	0.7
710.277	0.47
710.458	0.65
710.639	0.82
710.819	0.6
711	0.65
711.181	0.77
711.362	0.76
711.542	0.71
711.723	0.71
711.904	0.75
712.085	0.68
712.265	0.7
712.446	0.6
712.627	0.62
712.807	0.68
712.988	0.65
713.168	0.54
713.349	0.7
713.53	0.52
713.71	0.54
713.891	0.52
714.071	0.65
714.252	0.64
714.432	0.55
714.613	0.52
714.793	0.65
714.974	0.73
715.154	0.7
715.334	0.68
715.515	0.68
715.695	0.57
715.876	0.6
716.056	0.6
716.236	0.5
716.417	0.63
716.597	0.5
716.777	0.81
716.957	0.6
717.138	0.64
717.318	0.61
717.498	0.57
717.678	0.59
717.859	0.62
718.039	0.57
718.219	0.64
718.399	0.6
718.579	0.52
718.759	0.53
718.939	0.62
719.12	0.65
719.3	0.61
719.48	0.27
719.66	0.45
719.84	0.73
720.02	0.59
720.2	0.48
720.38	0.49
720.56	0.69
720.74	0.56
720.92	0.6
721.1	0.69
721.279	0.76
721.459	0.57
721.639	0.53
721.819	0.54
721.999	0.56
722.179	0.66
722.359	0.39
722.538	0.54
722.718	0.55
722.898	0.62
723.078	0.66
723.257	0.49
723.437	0.61
723.617	0.55
723.797	0.51
723.976	0.54
724.156	0.68
724.336	0.64
724.515	0.68
724.695	0.33
724.874	0.56
725.054	0.63
725.234	0.48
725.413	0.58
725.593	0.57
725.772	0.54
725.952	0.55
726.131	0.53
726.311	0.54
726.49	0.53
726.67	0.36
726.849	0.43
727.028	0.6
727.208	0.44
727.387	0.57
727.567	0.41
727.746	0.55
727.925	0.51
728.105	0.42
728.284	0.45
728.463	0.5
728.643	0.58
728.822	0.42
729.001	0.55
729.18	0.58
729.359	0.67
729.539	0.57
729.718	0.51
729.897	0.55
730.076	0.51
730.255	0.42
730.434	0.52
730.614	0.52
730.793	0.63
730.972	0.44
731.151	0.54
731.33	0.61
731.509	0.52
731.688	0.48
731.867	0.51
732.046	0.33
732.225	0.74
732.404	0.4
732.583	0.42
732.762	0.49
732.941	0.52
733.12	0.5
733.298	0.41
733.477	0.65
733.656	0.44
733.835	0.39
734.014	0.53
734.193	0.51
734.371	0.57
734.55	0.63
734.729	0.33
734.908	0.51
735.086	0.56
735.265	0.64
735.444	0.3
735.623	0.46
735.801	0.51
735.98	0.56
736.159	0.5
736.337	0.66
736.516	0.58
736.694	0.48
736.873	0.48
737.052	0.78
737.23	0.69
737.409	0.44
737.587	0.75
737.766	0.42
737.944	0.67
738.123	0.56
738.301	0.56
738.479	0.58
738.658	0.54
738.836	0.23
739.015	0.47
739.193	0.58
739.371	0.3
739.55	0.48
739.728	0.3
739.906	0.56
740.085	0.68
740.263	0.53
740.441	0.37
740.62	0.73
740.798	0.61
740.976	0.38
741.154	0.32
741.332	0.66
741.511	0.59
741.689	0.6
741.867	0.59
742.045	0.58
742.223	0.49
742.401	0.4
742.579	0.42
742.757	0.61
742.935	0.3
743.114	0.43
743.292	0.43
743.47	0.48
743.648	0.53
743.826	0.31
744.004	0.41
744.181	0.62
744.359	0.48
744.537	0.61
744.715	0.42
744.893	0.54
745.071	0.46
745.249	0.39
745.427	0.35
745.605	0.56
745.782	0.39
745.96	0.5
746.138	0.58
746.316	0.67
746.493	0.46
746.671	0.49
746.849	0.37
747.027	0.62
747.204	0.36
747.382	0.47
747.56	0.25
747.737	0.48
747.915	0.35
748.093	0.5
748.27	0.39
748.448	0.41
748.625	0.2
748.803	0.36
748.98	0.4
749.158	0.51
749.335	0.55
749.513	0.43
749.69	0.41
749.868	0.47
750.045	0.48
750.223	0.31
750.4	0.26
750.578	0.67
750.755	0.42
750.932	0.34
751.11	0.45
751.287	0.27
751.464	0.54
751.642	0.33
751.819	0.55
751.996	0.46
752.173	0.35
752.351	0.29
752.528	0.44
752.705	0.35
752.882	0.32
753.06	0.5
753.237	0.47
753.414	0.6
753.591	0.63
753.768	0.36
753.945	0.39
754.122	0.29
754.299	0.47
754.476	0.32
754.654	0.21
754.831	0.5
755.008	0.5
755.185	0.41
755.362	0.27
755.539	0.4
755.716	0.32
755.892	0.41
756.069	0.33
756.246	0.54
756.423	0.5
756.6	0.54
756.777	0.27
756.954	0.51
757.131	0.43
757.307	0.28
757.484	0.21
757.661	0.4
757.838	0.45
758.015	0.27
758.191	0.4
758.368	0.45
758.545	0.49
758.721	0.46
758.898	0.19
759.075	0.41
759.251	0.52
759.428	0.48
759.605	0.23
759.781	0.36
759.958	0.54
760.134	0.42
760.311	0.27
760.488	0.62
760.664	0.65
760.841	0.34
761.017	0.38
761.194	0.47
761.37	0.54
761.547	0.52
761.723	0.3
761.899	0.57
762.076	0.28
762.252	0.37
762.429	0.46
762.605	0.62
762.781	0.43
762.958	0.47
763.134	0.31
763.31	0.26
763.486	0.69
763.663	0.2
763.839	0.44
764.015	0.15
764.191	0.43
764.368	0.4
764.544	0.25
764.72	0.54
764.896	0.55
765.072	0.46
765.248	0.32
765.425	0.36
765.601	0.4
765.777	0.3
765.953	0.17
766.129	0.24
766.305	0.26
766.481	0.48
766.657	0.32
766.833	0.45
767.009	0.29
767.185	0.37
767.361	0.24
767.537	0.25
767.713	0.63
767.889	0.27
768.065	0.22
768.24	0.55
768.416	0.44
768.592	0.35
768.768	0.43
768.944	0.52
769.12	0.3
769.295	0.32
769.471	0.43
769.647	0.46
769.823	0.57
769.998	0.28
770.174	0.21
770.35	0.71
770.525	0.7
770.701	0.43
770.877	0.39
771.052	0.26
771.228	0.41
771.403	0.48
771.579	0.42
771.755	0.69
771.93	0.42
772.106	0.37
772.281	0.12
772.457	0.4
772.632	0.47
772.808	0.21
772.983	0.25
773.159	0.24
773.334	0.71
773.509	0.52
773.685	0.23
773.86	0.81
774.036	0.59
774.211	0.62
774.386	0.4
774.562	0.28
774.737	0.58
774.912	0.36
775.087	0.48
775.263	0.47
775.438	0.39
775.613	0.34
775.788	0.33
775.964	0.69
776.139	1.03
776.314	0.19
776.489	0.42
776.664	0.49
776.839	0.27
777.014	0.52
777.19	0.4
777.365	0.61
777.54	0.68
777.715	0.24
777.89	0.43
778.065	0.39
778.24	0.46
778.415	0.52
778.59	0.19
778.765	0.59
778.94	0.7
779.115	0.32
779.289	0.43
779.464	0.44
779.639	0.32
779.814	0.12
779.989	0.27
780.164	0.66
780.339	0.49
780.513	0.39
780.688	0.21
780.863	0.61
781.038	0.65
781.212	0.19
781.387	0.37
781.562	0.74
781.737	0.28
781.911	0.62
782.086	0.3
782.261	0.4
782.435	0.79
782.61	0.26
782.784	0.46
782.959	0.79
783.134	0.28
783.308	0.4
783.483	0.51
783.657	0.99
783.832	0.67
784.006	0.2
784.181	0.44
784.355	0.61
784.53	0.24
784.704	0.24
784.878	0.81
785.053	0.43
785.227	0.69
785.402	0.81
785.576	0.48
785.75	0.54
785.925	0.59
786.099	0.58
786.273	0.61
786.448	0.81
786.622	0.81
786.796	0.56
786.97	0.63
787.145	1.19
787.319	0.31
787.493	0.27
787.667	0.06
787.841	0.42
788.015	0.94
788.19	0.5
788.364	0.35
788.538	0.53
788.712	0.49
788.886	0.47
789.06	0.69
789.234	0.88
789.408	0.23
789.582	0.39
789.756	0.24
789.93	0.39
790.104	0.54
790.278	0.29
790.452	0.37
790.626	0.54
790.8	0.19
790.973	0.5
791.147	0.78
791.321	0.88
791.495	0.75
791.669	0.41
791.843	0.62
792.016	0.67
792.19	1.04
792.364	0.46
792.538	1.14
792.711	0.87
792.885	0.5
793.059	0.2
793.233	-0.05
793.406	0.67
793.58	0.48
793.754	0.52
793.927	0.48
794.101	0.78
794.274	0.48
794.448	0.84
794.622	0.14
794.795	0.98
794.969	0.2
795.142	0.62
795.316	0.51
795.489	0.28
795.663	1.14
795.836	0.42
796.009	0.34
796.183	0.75
796.356	0.75
796.53	0.68
796.703	0.62
796.876	1.21
797.05	0.52
797.223	0.25
797.396	0.62
797.57	0.46
797.743	0.89
797.916	0.36
798.09	0.38
798.263	1.17
798.436	0.81
798.609	0.38
798.782	0.41
798.956	0.9
799.129	0.64
799.302	0.3
799.475	0.22
799.648	0.36
799.821	0.16
799.994	0.63
800.167	-0
800.34	0.63
800.514	0.64
800.687	0.45
800.86	0.33
801.033	0.68
801.206	0.83
801.379	0.38
801.551	0.71
801.724	0.93
801.897	1.05
802.07	0.68
802.243	0.21
802.416	0.54
802.589	0.49
802.762	0.87
802.935	0.67
803.107	1
803.28	1.12
803.453	0.67
803.626	0.39
803.798	0.66
803.971	0.51
804.144	0.68
804.317	0.56
804.489	1.04
804.662	0.92
804.835	0.55
805.007	0.34
805.18	1.26
805.353	0.89
805.525	0.16
805.698	0.34
805.87	0.92
806.043	0.88
806.215	-0.07
806.388	0.34
806.56	0.62
806.733	1.36
806.905	0.36
807.078	0.11
807.25	0.52
807.423	0.88
807.595	0.63
807.768	0.43
807.94	0.72
808.112	0.76
808.285	0.69
808.457	0.33
808.629	0.99
808.802	1.03
808.974	0.71
809.146	0.34
809.318	0.51
809.491	0.48
809.663	0.82
809.835	0.04
810.007	0.61
810.18	0.91
810.352	0.09
810.524	0.51
810.696	0.91
810.868	1.55
811.04	0.39
811.212	0.44
811.384	0.96
811.556	0.82
811.728	0.64
811.901	1.48
812.073	0.35
812.245	1.07
812.417	0.85
812.589	0.05
812.76	0.83
812.932	1.1
813.104	0.91
813.276	0.76
813.448	1.11
813.62	0.71
813.792	0.6
813.964	0.83
814.136	0.68
814.307	0.6
814.479	0.26
814.651	0.32
814.823	1.74
814.995	0.43
815.166	0.68
815.338	0.56
815.51	0.13
815.681	1.81
815.853	0.82
816.025	0.55
816.196	1.32
816.368	1.41
816.54	0.2
816.711	0.07
816.883	1.05
817.054	1.76
817.226	0.29
817.398	1.01
817.569	0.37
817.741	0.9
817.912	0.52
818.084	0.86
818.255	0.69
818.426	0.58
818.598	0.63
818.769	0.17
818.941	0.9
819.112	1.85
819.283	1.22
819.455	0.38
819.626	0.81
819.798	1.18
819.969	0.72
820.14	0.52
820.311	0.48
820.483	1.18
820.654	0.87
820.825	0.98
820.996	0.79
821.168	0.07
821.339	0.61
821.51	0.4
821.681	0.66
821.852	1.18
822.023	0.68
822.195	0.15
822.366	1.62
822.537	0.78
822.708	1.21
822.879	0.4
823.05	1.13
823.221	0.58
823.392	0.89
823.563	1.09
823.734	1.04
823.905	0.96
824.076	0.66
824.247	0.61
824.418	0.67
824.589	1.63
824.759	0.5
824.93	0.64
825.101	0.08
825.272	1.56
825.443	1.17
825.614	1.73
825.784	0.12
825.955	2.48
826.126	0.95
826.297	0.69
826.467	2.05
826.638	2.36
826.809	0.14
826.98	1.26
827.15	1.62
827.321	1.08
827.492	1.93
827.662	0.6
827.833	2.06
828.003	1.53
828.174	0.65
828.345	0.08
828.515	1.78
828.686	1.29
828.856	1.12
829.027	0.73
829.197	0.67
829.368	1.47
829.538	0.4
829.709	0.26
829.879	0.95
830.049	0.74
830.22	1.19
830.39	0.79
830.56	1.72
830.731	1.18
830.901	0.81
831.072	0.68
831.242	1.4
831.412	1.23
831.582	1.09
831.753	-0.06
831.923	2.01
832.093	1.67
832.263	0.72
832.434	0.28
832.604	0.82
832.774	1.83
832.944	0.62
833.114	0.13
833.284	1.38
833.454	0.67
833.624	0.95
833.795	0.14
833.965	2.07
834.135	2.45
834.305	-0
834.475	0.22
834.645	1.75
834.815	0.92
834.985	0.28
835.155	0.71
835.325	1.39
835.494	1.78
835.664	0.72
835.834	0.39
836.004	1.02
836.174	0.82
836.344	0.51
836.514	-0.26
836.684	0.69
836.853	0.65
837.023	1.41
837.193	0.42
837.363	1.85
837.532	1.55
837.702	1.19
837.872	0.59
838.041	2.14
838.211	2.86
838.381	0.17
838.55	1.31
838.72	3.73
838.89	2.98
839.059	1.01
839.229	0.2
839.398	3.72
839.568	2.12
839.738	1.12
839.907	2.42
840.077	1.81
840.246	1.15
840.416	1.04
840.585	0.11
840.755	2.4
840.924	2.24
841.093	0.22
841.263	0.72
841.432	0.77
841.602	0.9
841.771	0.24
841.94	1.33
842.11	2.83
842.279	2.99
842.448	0.53
842.617	-0.35
842.787	2.16
842.956	-0.24
843.125	1.59
843.294	1.46
843.464	2.14
843.633	2.47
843.802	0.44
843.971	1.52
844.14	1.87
844.309	3.25
844.479	-1.01
844.648	0.14
844.817	1.23
844.986	1.18
845.155	-0
845.324	0.78
845.493	1.11
845.662	0.4
845.831	1.52
846	0.46
846.169	0.84
846.338	2.49
846.507	1.2
846.676	1.4
846.844	0.46
847.013	1.97
847.182	1.59
847.351	0.17
847.52	1.77
847.689	2.02
847.858	1.43
848.026	0.27
848.195	1.48
848.364	1.29
848.533	0.34
848.701	1.17
848.87	2.93
849.039	3.19
849.207	1.18
849.376	2.68
849.545	2.84
849.713	1.87
849.882	1.22
850.051	1.41
850.219	0.95
850.388	2.39
850.556	0.58
850.725	1.37
850.893	2.28
851.062	0.56
851.23	2.26
851.399	0.5
851.567	1.39
851.736	1.63
851.904	0.03
852.073	1.09
852.241	2.03
852.41	1.58
852.578	1.59
852.746	1.38
852.915	2.17
853.083	1.76
853.251	-0.24
853.42	0.41
853.588	1.82
853.756	2.43
853.924	1.62
854.093	0.6
854.261	1.3
854.429	-0.63
854.597	2.08
854.765	0.03
854.934	2.66
855.102	4.14
855.27	1.53
855.438	2.13
855.606	3.87
855.774	4.2
855.942	-0.22
856.11	0.62
856.278	1.69
856.446	3.26
856.614	2.61
856.782	0.69
856.95	2.99
857.118	3.69
857.286	1.3
857.454	1.74
857.622	4.1
857.79	2.88
857.958	0.33
858.126	1.6
858.294	-1.35
858.462	2.62
858.629	0.48
858.797	-0.54
858.965	2.44
859.133	1.58
859.301	0.44
859.468	1.79
859.636	2.14
859.804	5.37
859.971	1.64
860.139	1.2
860.307	2.6
860.474	1.87
860.642	-0.09
860.81	-0.02
860.977	1.01
861.145	4.29
861.313	0.95
861.48	1.4
861.648	3.76
861.815	1.14
861.983	-0.6
862.15	2.02
862.318	3.04
862.485	2.67
862.653	-0.01
862.82	1.17
862.988	3.71
863.155	1.17
863.322	1.1
863.49	0.63
863.657	1.72
863.824	5.38
863.992	3
864.159	1.92
864.326	3.98
864.494	1.07
864.661	5.56
864.828	0.87
864.996	5.26
865.163	3.59
865.33	2.45
865.497	-0.75
865.664	1.75
865.832	-0.35
865.999	0.99
866.166	0.3
866.333	0.69
866.5	3.08
866.667	1.76
866.834	2.66
867.001	5.32
867.168	-0.44
867.335	1.19
867.502	0.38
867.669	2.59
867.836	6.1
868.003	2.07
868.17	3.65
868.337	3.01
868.504	5.78
868.671	-0.1
868.838	1
869.005	3.3
869.172	3.39
869.339	1.51
869.505	2.65
869.672	3.12
869.839	4.88
870.006	2.05
870.173	0.24
870.339	3.79
870.506	6.17
870.673	0.48
870.84	3.29
871.006	3.12
871.173	4.79
871.34	1.59
871.506	0.62
871.673	4.28
871.839	-0.51
872.006	2.41
872.173	1.19
872.339	2.96
872.506	5.03
872.672	3.5
872.839	0.02
873.005	4.74
873.172	5.98
873.338	3.36
873.505	3.54
873.671	4.67
873.838	3.65
874.004	0.09
874.171	1.46
874.337	2.82
874.503	5.56
874.67	1.92
874.836	1.54
875.002	5.92
875.169	4.68
875.335	2.17
875.501	1.31
875.668	3.5
875.834	1.82
876	2.14
876.166	3.64
876.332	3.44
876.499	6.92
876.665	1.68
876.831	2.11
876.997	8.15
877.163	4.2
877.329	3.12
877.495	1.67
877.662	5.56
877.828	3.54
877.994	1.52
878.16	-2.04
878.326	2.58
878.492	2.31
878.658	2.27
878.824	1.7
878.99	3.62
879.156	3.01
879.322	5.8
879.487	1.56
879.653	2.57
879.819	3.51
879.985	0.46
880.151	3.29
880.317	3.64
880.483	4.81
880.648	3.95
880.814	-0.79
880.98	3.23
881.146	-2
881.312	0.72
881.477	1.7
881.643	3.24
881.809	4.81
881.974	6.2
882.14	1.16
882.306	2.27
882.471	6.62
882.637	-0.54
882.803	1.96
882.968	4.91
883.134	7.75
883.299	3.73
883.465	3.43
883.63	6.2
883.796	3.33
883.961	2.32
884.127	3.17
884.292	-3.52
884.458	0.08
884.623	0.08
