Data from Apollo_Calib_20240827__AbsoluteIrradiance__732__11-21-02-292.txt Node

Date: Wed Aug 28 11:21:02 BST 2024
User: biology
Spectrometer: FLMT08252
Trigger mode: 0
Integration Time (sec): 5.000000E-1
Scans to average: 5
Electric dark correction enabled: true
Nonlinearity correction enabled: false
Boxcar width: 0
XAxis mode: Wavelengths
Number of Pixels in Spectrum: 3648
>>>>>Begin Spectral Data<<<<<
179.588	-0
179.809	-0
180.03	-0
180.251	-0
180.473	-0
180.694	0
180.915	0
181.136	-0
181.357	-0
181.578	-0
181.799	-0
182.02	-0
182.241	0
182.462	-0
182.683	0
182.904	-0
183.125	0
183.346	0
183.567	0
183.788	0
184.009	-0
184.23	0
184.451	0
184.672	0
184.892	0
185.113	0
185.334	0
185.555	0
185.776	0
185.996	0
186.217	0
186.438	0
186.659	0
186.879	0
187.1	0
187.321	0
187.541	0
187.762	0
187.983	0
188.203	0
188.424	0
188.644	0
188.865	0
189.086	0
189.306	0
189.527	0
189.747	0
189.968	0
190.188	0
190.409	0
190.629	0
190.849	0
191.07	0
191.29	0
191.511	0
191.731	0
191.951	0
192.172	0
192.392	0
192.612	0
192.833	0
193.053	0
193.273	0
193.493	0
193.714	0
193.934	0
194.154	0
194.374	0
194.594	0
194.815	0
195.035	0
195.255	0
195.475	0
195.695	0
195.915	0
196.135	0
196.355	0
196.575	0
196.795	0
197.015	0
197.235	0
197.455	0
197.675	0
197.895	0
198.115	0
198.335	0
198.555	0
198.775	0
198.995	0
199.214	0
199.434	0
199.654	0
199.874	0
200.094	2.21
200.313	0.91
200.533	0.74
200.753	0.31
200.973	2.13
201.192	2.24
201.412	0.6
201.632	0.85
201.851	1.93
202.071	0.35
202.291	0.24
202.51	0.32
202.73	1.42
202.95	0.81
203.169	0.18
203.389	0.52
203.608	1.27
203.828	-0.03
204.047	0.66
204.267	1.06
204.486	0.9
204.706	0.87
204.925	0.76
205.145	0.56
205.364	1.52
205.583	1.38
205.803	0.38
206.022	0.47
206.242	0.36
206.461	0.79
206.68	0.54
206.9	0.93
207.119	1.49
207.338	0.94
207.557	0.25
207.777	0.38
207.996	0.51
208.215	1.2
208.434	0.19
208.654	0.37
208.873	0.54
209.092	1.23
209.311	0.58
209.53	0.74
209.749	0.73
209.968	0.34
210.187	0.5
210.407	0.32
210.626	0.36
210.845	0.71
211.064	0.71
211.283	0.12
211.502	0.75
211.721	0.59
211.94	0.4
212.159	0.61
212.377	0.68
212.596	0.97
212.815	0.32
213.034	0.64
213.253	0.57
213.472	0.63
213.691	0.39
213.91	0.1
214.128	0.22
214.347	0.73
214.566	0.06
214.785	0.19
215.003	0.52
215.222	0.5
215.441	0.39
215.66	0.12
215.878	0.43
216.097	0.71
216.316	0.08
216.534	0.24
216.753	0.54
216.972	0.51
217.19	0.54
217.409	0.31
217.627	0.2
217.846	0.34
218.064	0.24
218.283	0.31
218.501	0.66
218.72	0.6
218.938	0.18
219.157	0.25
219.375	0.66
219.594	0.52
219.812	0.16
220.031	0.28
220.249	0.78
220.467	0.67
220.686	0.21
220.904	0.22
221.122	0.19
221.341	0.73
221.559	0.22
221.777	0.22
221.995	0.38
222.214	0.5
222.432	0.24
222.65	0.41
222.868	0.43
223.086	0.45
223.305	0.46
223.523	0.28
223.741	0.71
223.959	0.24
224.177	0.12
224.395	0.2
224.613	0.4
224.831	0.37
225.049	0.16
225.267	0.22
225.485	0.32
225.703	0.28
225.921	0.26
226.139	0.22
226.357	0.46
226.575	0.32
226.793	0.25
227.011	0.92
227.229	0.41
227.447	0.52
227.665	0.27
227.883	0.11
228.1	0.3
228.318	0.35
228.536	0.07
228.754	0.13
228.972	0.41
229.189	0.51
229.407	0.25
229.625	0.18
229.843	0.35
230.06	0.44
230.278	0.17
230.496	0.22
230.713	0.42
230.931	0.25
231.149	0.2
231.366	0.02
231.584	0.14
231.801	0.63
232.019	0.19
232.236	0.06
232.454	0.14
232.671	0.34
232.889	0.26
233.106	0.16
233.324	0.32
233.541	0.16
233.759	0.22
233.976	0.18
234.194	0.23
234.411	0.23
234.628	0.09
234.846	0.22
235.063	0.2
235.28	0.23
235.498	0.25
235.715	0.13
235.932	0.4
236.149	0.15
236.367	0.1
236.584	0.24
236.801	0
237.018	0.37
237.236	0.23
237.453	0.15
237.67	0.39
237.887	0.17
238.104	0.16
238.321	0.03
238.538	0.08
238.755	0.38
238.973	0.12
239.19	0.22
239.407	0.3
239.624	0.19
239.841	0.02
240.058	0.12
240.275	0.15
240.492	0.16
240.709	0.18
240.925	0.21
241.142	0.21
241.359	0.16
241.576	0.03
241.793	0.06
242.01	0.18
242.227	0.33
242.444	0.19
242.66	0.2
242.877	0.26
243.094	0.16
243.311	0.23
243.527	0.15
243.744	0.22
243.961	0.22
244.178	0.21
244.394	0.14
244.611	0.29
244.828	0.37
245.044	0.11
245.261	0.23
245.477	0.22
245.694	0.24
245.911	0.2
246.127	0.18
246.344	0.35
246.56	0.32
246.777	0.2
246.993	0.23
247.21	0.21
247.426	0.27
247.643	0.12
247.859	0.11
248.076	0.14
248.292	0.44
248.508	0.13
248.725	0.17
248.941	0.27
249.157	0.31
249.374	0.08
249.59	0.2
249.806	0.25
250.023	0.26
250.239	0.1
250.455	0.06
250.671	0.18
250.888	0.19
251.104	0.31
251.32	0.18
251.536	0.14
251.752	0.18
251.969	0.22
252.185	0.13
252.401	0.42
252.617	0.17
252.833	0.17
253.049	0.13
253.265	0.12
253.481	0.19
253.697	0.16
253.913	0.1
254.129	0.17
254.345	0.22
254.561	0.18
254.777	0.18
254.993	0.25
255.209	0.24
255.425	0.16
255.641	0.08
255.857	0.32
256.073	0.17
256.288	0.04
256.504	0.15
256.72	0.18
256.936	0.28
257.152	0.11
257.367	0.1
257.583	0.22
257.799	0.26
258.015	0.13
258.23	0.15
258.446	0.31
258.662	0.17
258.877	0.15
259.093	0.06
259.309	0.09
259.524	0.2
259.74	0.1
259.955	0.01
260.171	0.2
260.387	0.18
260.602	0.24
260.818	0.16
261.033	0.09
261.249	0.14
261.464	0.04
261.68	0.02
261.895	0.16
262.11	0.28
262.326	0.09
262.541	0.05
262.757	0.26
262.972	0.19
263.187	0.22
263.403	0.13
263.618	0.25
263.833	0.2
264.049	0.11
264.264	0.1
264.479	0.14
264.694	0.23
264.91	0.06
265.125	0.17
265.34	0.19
265.555	0.32
265.77	0.22
265.986	0.16
266.201	0.17
266.416	0.21
266.631	0.12
266.846	0.16
267.061	0.23
267.276	0.23
267.491	0.04
267.706	0.27
267.921	0.22
268.136	0.13
268.351	0.1
268.566	0.08
268.781	0.28
268.996	0.24
269.211	0.08
269.426	0.06
269.641	0.18
269.856	0.2
270.071	0.08
270.285	0.08
270.5	0.21
270.715	0.25
270.93	0.12
271.145	0.16
271.359	0.24
271.574	0.18
271.789	0.11
272.004	0.07
272.218	0.15
272.433	0.24
272.648	0.09
272.862	0.24
273.077	0.12
273.292	0.19
273.506	0.1
273.721	0.15
273.936	0.15
274.15	0.19
274.365	0.09
274.579	0.17
274.794	0.15
275.008	0.2
275.223	0.08
275.437	0.15
275.652	0.21
275.866	0.19
276.081	0.14
276.295	0.16
276.509	0.18
276.724	0.15
276.938	0.15
277.153	0.19
277.367	0.24
277.581	0.15
277.796	0.05
278.01	0.07
278.224	0.23
278.438	0.24
278.653	0.14
278.867	0.08
279.081	-0.03
279.295	0.07
279.51	0.13
279.724	0.03
279.938	0.21
280.152	0.15
280.366	0.12
280.58	0.19
280.794	0.25
281.008	0.16
281.222	0.21
281.437	0.25
281.651	0.12
281.865	0.23
282.079	0.14
282.293	0.03
282.507	0.07
282.721	0.13
282.935	0.16
283.148	0.11
283.362	0.11
283.576	0.09
283.79	0.13
284.004	0.07
284.218	0.23
284.432	0.12
284.646	0.16
284.859	0.12
285.073	0.09
285.287	0.17
285.501	0.16
285.714	0.16
285.928	0.16
286.142	0.12
286.356	0.11
286.569	0.11
286.783	0.21
286.997	0.14
287.21	0.15
287.424	0.13
287.637	0.17
287.851	0.09
288.065	0.15
288.278	0.15
288.492	0.13
288.705	0.14
288.919	0.16
289.132	0.04
289.346	0.17
289.559	0.01
289.773	0.07
289.986	0.09
290.2	0.1
290.413	0.17
290.626	0.05
290.84	0.09
291.053	0.14
291.267	0.2
291.48	0.13
291.693	0.09
291.906	0.1
292.12	0.11
292.333	0.07
292.546	0.11
292.76	0.21
292.973	0.16
293.186	0.17
293.399	0.08
293.612	0.18
293.826	0.1
294.039	0.11
294.252	0.15
294.465	0.13
294.678	0.16
294.891	0.12
295.104	0.08
295.317	0.14
295.53	0.15
295.743	0.12
295.956	0.13
296.169	0.19
296.382	0.13
296.595	0.17
296.808	0.07
297.021	0.18
297.234	0.17
297.447	0.12
297.66	0.08
297.873	0.17
298.086	0.15
298.299	0.1
298.511	0.07
298.724	0.09
298.937	0.08
299.15	0.09
299.363	0.11
299.575	0.13
299.788	0.12
300.001	0.11
300.213	0.1
300.426	0.12
300.639	0.09
300.852	0.07
301.064	0.16
301.277	0.21
301.489	0.18
301.702	0.12
301.915	0.14
302.127	0.14
302.34	0.14
302.552	0.13
302.765	0.12
302.977	0.16
303.19	0.1
303.402	0.08
303.615	0.08
303.827	0.13
304.04	0.11
304.252	0.17
304.464	0.12
304.677	0.22
304.889	0.2
305.102	0.12
305.314	0.1
305.526	0.11
305.739	0.13
305.951	0.06
306.163	0.09
306.375	0.18
306.588	0.08
306.8	0.11
307.012	0.06
307.224	0.13
307.436	0.18
307.649	0.03
307.861	0.12
308.073	0.14
308.285	0.09
308.497	0.03
308.709	0.09
308.921	0.12
309.133	0.17
309.346	0.08
309.558	0.13
309.77	0.16
309.982	0.23
310.194	0.19
310.406	0.13
310.617	0.19
310.829	0.13
311.041	0.14
311.253	0.05
311.465	0.08
311.677	0.15
311.889	0.13
312.101	0.12
312.313	0.16
312.524	0.21
312.736	0.06
312.948	0.11
313.16	0.17
313.372	0.17
313.583	0.15
313.795	0.08
314.007	0.1
314.218	0.13
314.43	0.11
314.642	0.09
314.853	0.02
315.065	0.15
315.277	0.11
315.488	0.13
315.7	0.17
315.912	0.11
316.123	0.1
316.335	0.12
316.546	0.27
316.758	0.13
316.969	0.1
317.181	0.13
317.392	0.11
317.604	0.17
317.815	0.07
318.026	0.07
318.238	0.09
318.449	0.14
318.661	0.06
318.872	0.07
319.083	0.07
319.295	0.15
319.506	0.07
319.717	0.09
319.929	0.14
320.14	0.11
320.351	0.11
320.562	0.09
320.774	0.09
320.985	0.12
321.196	0.12
321.407	0.03
321.618	0.15
321.829	0.17
322.041	0.14
322.252	0.08
322.463	0.12
322.674	0.13
322.885	0.05
323.096	0.13
323.307	0.13
323.518	0.15
323.729	0.1
323.94	0.08
324.151	0.1
324.362	0.11
324.573	0.13
324.784	0.09
324.995	0.16
325.206	0.13
325.417	0.09
325.628	0.1
325.838	0.09
326.049	0.1
326.26	0.17
326.471	0.06
326.682	0.13
326.892	0.13
327.103	0.05
327.314	0.06
327.525	0.17
327.735	0.12
327.946	0.11
328.157	0.04
328.368	0.15
328.578	0.11
328.789	0.19
328.999	0.1
329.21	0.12
329.421	0.16
329.631	0.06
329.842	0.1
330.052	0.13
330.263	0.2
330.473	0.12
330.684	0.1
330.894	0.14
331.105	0.15
331.315	0.11
331.526	0.06
331.736	0.21
331.947	0.11
332.157	0.12
332.367	0.03
332.578	0.16
332.788	0.2
332.999	0.16
333.209	0.11
333.419	0.1
333.629	0.16
333.84	0.16
334.05	0.09
334.26	0.18
334.47	0.11
334.681	0.21
334.891	0.08
335.101	0.13
335.311	0.22
335.521	0.1
335.732	0.06
335.942	0.18
336.152	0.14
336.362	0.1
336.572	0.1
336.782	0.14
336.992	0.07
337.202	0.1
337.412	0.11
337.622	0.11
337.832	0.13
338.042	0.14
338.252	0.09
338.462	0.08
338.672	0.14
338.882	0.05
339.092	0.12
339.302	0.17
339.511	0.2
339.721	0.1
339.931	0.06
340.141	0.16
340.351	0.21
340.561	0.12
340.77	0.11
340.98	0.12
341.19	0.13
341.4	0.07
341.609	0.03
341.819	0.1
342.029	0.07
342.238	0.11
342.448	0.08
342.658	0.09
342.867	0.12
343.077	0.14
343.286	0.12
343.496	0.12
343.706	0.19
343.915	0.06
344.125	0.13
344.334	0.17
344.544	0.07
344.753	0.07
344.963	0.08
345.172	0.11
345.381	0.05
345.591	0.11
345.8	0.13
346.01	0.15
346.219	0.17
346.428	-0.01
346.638	0.1
346.847	0.09
347.056	0.19
347.266	0.11
347.475	0.08
347.684	0.15
347.893	0.18
348.103	0.12
348.312	0.07
348.521	0.09
348.73	0.08
348.94	0.12
349.149	0.08
349.358	0.13
349.567	0.13
349.776	0.03
349.985	0.1
350.194	0.13
350.403	0.12
350.612	0.04
350.821	0.06
351.03	0.11
351.239	0.06
351.448	0.13
351.657	0.07
351.866	0.2
352.075	0.08
352.284	0.17
352.493	0.05
352.702	0.16
352.911	0.14
353.12	0.14
353.329	0.08
353.538	0.14
353.746	0.08
353.955	0.09
354.164	0.14
354.373	0.11
354.582	0.17
354.79	0.04
354.999	0.11
355.208	0.09
355.416	0.2
355.625	0.03
355.834	0.1
356.042	0.09
356.251	0.1
356.46	0.07
356.668	0.15
356.877	0.17
357.085	0.09
357.294	0.05
357.503	0.15
357.711	0.11
357.92	0.22
358.128	0.13
358.337	0.09
358.545	0.14
358.754	0.05
358.962	0.14
359.17	0.12
359.379	0.09
359.587	0.15
359.796	0.08
360.004	0.16
360.212	0.17
360.421	0.15
360.629	0.11
360.837	0.07
361.046	0.14
361.254	0.24
361.462	0.09
361.67	0.1
361.879	0.13
362.087	0.16
362.295	0.13
362.503	0.08
362.711	0.07
362.92	0.05
363.128	0.05
363.336	0.11
363.544	0.06
363.752	0.1
363.96	0.07
364.168	0.08
364.376	0.14
364.584	0.07
364.792	0.15
365	0.12
365.208	0.14
365.416	0.14
365.624	0.13
365.832	0.08
366.04	0.17
366.248	0.1
366.456	0.09
366.664	0.12
366.872	0.1
367.079	0.09
367.287	0.13
367.495	0.17
367.703	0.1
367.911	0.08
368.118	0.07
368.326	0.11
368.534	0.05
368.742	0.16
368.949	0.11
369.157	0.1
369.365	0.16
369.572	0.14
369.78	0.08
369.988	0.15
370.195	0.12
370.403	0.15
370.61	0.09
370.818	0.1
371.026	0.17
371.233	0.08
371.441	0.16
371.648	0.12
371.856	0.11
372.063	0.1
372.271	0.1
372.478	0.11
372.685	0.09
372.893	0.11
373.1	0.12
373.308	0.09
373.515	0.19
373.722	0.2
373.93	0.12
374.137	0.12
374.344	0.19
374.552	0.19
374.759	0.12
374.966	0.11
375.173	0.11
375.381	0.2
375.588	0.1
375.795	0.05
376.002	0.07
376.209	0.1
376.417	0.1
376.624	0.13
376.831	0.15
377.038	0.1
377.245	0.07
377.452	0.07
377.659	0.09
377.866	0.06
378.073	0.12
378.28	0.13
378.487	0.2
378.694	0.15
378.901	0.12
379.108	0.14
379.315	0.15
379.522	0.16
379.729	0.14
379.936	0.12
380.143	0.09
380.35	0.14
380.557	0.1
380.763	0.13
380.97	0.11
381.177	0.17
381.384	0.13
381.591	0.08
381.797	0.11
382.004	0.13
382.211	0.17
382.418	0.07
382.624	0.15
382.831	0.14
383.038	0.08
383.244	0.16
383.451	0.14
383.658	0.14
383.864	0.12
384.071	0.11
384.277	0.18
384.484	0.06
384.69	0.19
384.897	0.07
385.103	0.09
385.31	0.13
385.516	0.15
385.723	0.1
385.929	0.11
386.136	0.11
386.342	0.15
386.549	0.11
386.755	0.14
386.961	0.12
387.168	0.1
387.374	0.09
387.58	0.14
387.787	0.12
387.993	0.18
388.199	0.14
388.406	0.09
388.612	0.17
388.818	0.1
389.024	0.1
389.231	0.11
389.437	0.18
389.643	0.14
389.849	0.14
390.055	0.18
390.261	0.09
390.467	0.15
390.674	0.12
390.88	0.1
391.086	0.1
391.292	0.11
391.498	0.2
391.704	0.15
391.91	0.15
392.116	0.08
392.322	0.02
392.528	0.16
392.734	0.13
392.94	0.12
393.146	0.13
393.352	0.15
393.557	0.11
393.763	0.12
393.969	0.2
394.175	0.1
394.381	0.18
394.587	0.08
394.792	0.14
394.998	0.19
395.204	0.21
395.41	0.09
395.615	0.19
395.821	0.11
396.027	0.17
396.233	0.11
396.438	0.17
396.644	0.17
396.85	0.13
397.055	0.13
397.261	0.15
397.466	0.23
397.672	0.12
397.878	0.2
398.083	0.18
398.289	0.13
398.494	0.17
398.7	0.2
398.905	0.05
399.111	0.17
399.316	0.08
399.522	0.12
399.727	0.12
399.932	0.15
400.138	0.12
400.343	0.18
400.549	0.17
400.754	0.15
400.959	0.17
401.165	0.13
401.37	0.17
401.575	0.21
401.78	0.15
401.986	0.13
402.191	0.14
402.396	0.15
402.601	0.18
402.807	0.15
403.012	0.17
403.217	0.23
403.422	0.17
403.627	0.17
403.832	0.2
404.037	0.2
404.243	0.2
404.448	0.14
404.653	0.15
404.858	0.22
405.063	0.24
405.268	0.13
405.473	0.13
405.678	0.16
405.883	0.38
406.088	0.19
406.293	0.16
406.498	0.16
406.703	0.24
406.907	0.21
407.112	0.14
407.317	0.2
407.522	0.2
407.727	0.16
407.932	0.28
408.136	0.3
408.341	0.24
408.546	0.24
408.751	0.3
408.956	0.22
409.16	0.31
409.365	0.24
409.57	0.25
409.774	0.26
409.979	0.3
410.184	0.25
410.388	0.25
410.593	0.33
410.798	0.31
411.002	0.27
411.207	0.34
411.411	0.34
411.616	0.25
411.82	0.32
412.025	0.32
412.229	0.35
412.434	0.48
412.638	0.39
412.843	0.35
413.047	0.39
413.252	0.37
413.456	0.35
413.66	0.43
413.865	0.41
414.069	0.49
414.273	0.43
414.478	0.41
414.682	0.41
414.886	0.42
415.091	0.43
415.295	0.44
415.499	0.55
415.703	0.47
415.908	0.57
416.112	0.47
416.316	0.66
416.52	0.65
416.724	0.5
416.929	0.59
417.133	0.74
417.337	0.65
417.541	0.68
417.745	0.68
417.949	0.77
418.153	0.74
418.357	0.72
418.561	0.88
418.765	0.86
418.969	0.96
419.173	0.98
419.377	0.91
419.581	1.09
419.785	1.01
419.989	1.03
420.193	1.13
420.397	1.15
420.601	1.21
420.804	1.24
421.008	1.18
421.212	1.26
421.416	1.33
421.62	1.28
421.823	1.27
422.027	1.41
422.231	1.4
422.435	1.41
422.638	1.43
422.842	1.5
423.046	1.48
423.249	1.58
423.453	1.58
423.657	1.73
423.86	1.65
424.064	1.7
424.268	1.87
424.471	1.77
424.675	1.94
424.878	2
425.082	1.98
425.285	2.08
425.489	2
425.692	2.03
425.896	2.06
426.099	2.19
426.303	2.29
426.506	2.18
426.71	2.37
426.913	2.49
427.116	2.52
427.32	2.49
427.523	2.51
427.726	2.73
427.93	2.64
428.133	2.83
428.336	2.88
428.54	2.92
428.743	3.09
428.946	3.13
429.149	3.14
429.353	3.2
429.556	3.21
429.759	3.16
429.962	3.17
430.165	3.3
430.368	3.17
430.571	3.15
430.775	3.22
430.978	3.17
431.181	3.25
431.384	3.24
431.587	3.29
431.79	3.4
431.993	3.44
432.196	3.49
432.399	3.62
432.602	3.77
432.805	3.78
433.008	3.97
433.211	3.91
433.414	4.05
433.616	4.2
433.819	4.05
434.022	4.05
434.225	4.3
434.428	4.25
434.631	4.42
434.833	4.3
435.036	4.43
435.239	4.57
435.442	4.54
435.645	4.54
435.847	4.63
436.05	4.75
436.253	4.9
436.455	4.83
436.658	4.74
436.861	4.97
437.063	5
437.266	5.01
437.468	5.2
437.671	5.42
437.874	5.29
438.076	5.22
438.279	5.51
438.481	5.5
438.684	5.76
438.886	5.66
439.089	5.83
439.291	5.82
439.494	6.1
439.696	6.06
439.899	6.33
440.101	6.48
440.303	6.43
440.506	6.97
440.708	6.85
440.91	7
441.113	7.08
441.315	7.19
441.517	7.1
441.72	7.36
441.922	7.15
442.124	7.21
442.326	7.39
442.529	7.5
442.731	7.52
442.933	7.77
443.135	7.62
443.337	7.54
443.539	7.84
443.742	7.71
443.944	8.07
444.146	7.96
444.348	7.96
444.55	7.96
444.752	8.07
444.954	8.1
445.156	8.12
445.358	8.24
445.56	8.4
445.762	8.39
445.964	8.47
446.166	8.39
446.368	8.45
446.57	8.47
446.772	8.29
446.974	8.38
447.175	8.32
447.377	8.35
447.579	8.37
447.781	8.26
447.983	8.25
448.184	8.01
448.386	8.16
448.588	7.97
448.79	7.99
448.991	8.12
449.193	8.14
449.395	7.88
449.597	7.77
449.798	7.78
450	7.43
450.202	7.43
450.403	7.44
450.605	7.42
450.806	7.17
451.008	7.07
451.21	7.01
451.411	6.83
451.613	6.46
451.814	6.61
452.016	6.53
452.217	6.2
452.419	6.2
452.62	6.05
452.821	5.91
453.023	5.92
453.224	5.68
453.426	5.51
453.627	5.09
453.828	5.23
454.03	5.25
454.231	5.26
454.432	5.15
454.634	5.06
454.835	4.88
455.036	4.72
455.238	4.65
455.439	4.56
455.64	4.29
455.841	4.25
456.042	4.4
456.244	4.17
456.445	3.98
456.646	3.83
456.847	3.83
457.048	3.83
457.249	3.91
457.45	3.8
457.651	3.48
457.852	3.37
458.054	3.24
458.255	3.25
458.456	3.25
458.657	3.18
458.858	2.94
459.058	2.95
459.259	3
459.46	2.87
459.661	2.89
459.862	2.94
460.063	2.8
460.264	2.76
460.465	2.62
460.666	2.73
460.866	2.59
461.067	2.36
461.268	2.45
461.469	2.42
461.67	2.36
461.87	2.28
462.071	2.3
462.272	2.27
462.473	2.27
462.673	2.31
462.874	2.22
463.075	2.27
463.275	2.26
463.476	2.31
463.676	2.3
463.877	2.24
464.078	2.17
464.278	2.26
464.479	2.13
464.679	2.08
464.88	2.04
465.08	2.13
465.281	2.02
465.481	1.85
465.682	1.78
465.882	1.89
466.083	1.82
466.283	1.82
466.483	1.72
466.684	1.55
466.884	1.59
467.085	1.61
467.285	1.63
467.485	1.57
467.686	1.55
467.886	1.43
468.086	1.5
468.286	1.49
468.487	1.52
468.687	1.44
468.887	1.39
469.087	1.51
469.287	1.42
469.488	1.28
469.688	1.4
469.888	1.41
470.088	1.36
470.288	1.36
470.488	1.33
470.688	1.26
470.888	1.18
471.088	1.15
471.288	1.2
471.488	1.2
471.688	1.23
471.888	1.15
472.088	1.23
472.288	1.22
472.488	1.09
472.688	1.09
472.888	1.09
473.088	1.13
473.288	1.06
473.488	1.06
473.688	1.19
473.887	1.02
474.087	1.01
474.287	1.06
474.487	1
474.687	1.07
474.886	0.99
475.086	1
475.286	1
475.486	0.97
475.685	0.95
475.885	0.9
476.085	0.97
476.284	1
476.484	0.93
476.684	0.97
476.883	1.03
477.083	0.92
477.282	0.87
477.482	1.02
477.681	0.93
477.881	0.89
478.08	0.88
478.28	0.85
478.479	0.95
478.679	0.99
478.878	0.89
479.078	0.84
479.277	0.86
479.477	0.87
479.676	0.86
479.875	0.86
480.075	0.8
480.274	0.87
480.473	0.91
480.673	0.83
480.872	0.9
481.071	0.88
481.271	0.88
481.47	0.84
481.669	0.87
481.868	0.82
482.067	0.83
482.267	0.82
482.466	0.8
482.665	0.81
482.864	0.79
483.063	0.79
483.262	0.88
483.461	0.9
483.661	0.9
483.86	0.86
484.059	0.88
484.258	0.88
484.457	0.84
484.656	0.86
484.855	0.89
485.054	0.82
485.253	0.83
485.452	0.83
485.651	0.86
485.849	0.84
486.048	0.83
486.247	0.88
486.446	0.9
486.645	0.86
486.844	0.85
487.043	0.87
487.241	0.92
487.44	0.88
487.639	0.94
487.838	0.9
488.037	0.9
488.235	1
488.434	0.88
488.633	0.86
488.831	0.97
489.03	0.98
489.229	0.98
489.427	0.94
489.626	0.99
489.825	1.02
490.023	0.98
490.222	0.97
490.42	1
490.619	1.01
490.817	1.04
491.016	1
491.214	1.04
491.413	1.06
491.611	1.04
491.81	1.02
492.008	1.07
492.207	1.12
492.405	1.09
492.604	1.02
492.802	1.11
493	1.16
493.199	1.14
493.397	1.14
493.595	1.19
493.794	1.12
493.992	1.23
494.19	1.2
494.388	1.25
494.587	1.2
494.785	1.21
494.983	1.19
495.181	1.26
495.379	1.27
495.578	1.31
495.776	1.32
495.974	1.28
496.172	1.31
496.37	1.33
496.568	1.36
496.766	1.33
496.964	1.42
497.162	1.4
497.36	1.41
497.558	1.45
497.756	1.47
497.954	1.48
498.152	1.49
498.35	1.51
498.548	1.47
498.746	1.51
498.944	1.5
499.142	1.53
499.34	1.56
499.538	1.61
499.736	1.58
499.933	1.63
500.131	1.63
500.329	1.68
500.527	1.68
500.725	1.75
500.922	1.73
501.12	1.74
501.318	1.77
501.516	1.78
501.713	1.81
501.911	1.8
502.109	1.76
502.306	1.85
502.504	1.8
502.701	1.83
502.899	1.87
503.097	1.98
503.294	1.91
503.492	1.95
503.689	1.97
503.887	1.98
504.084	2.04
504.282	2.02
504.479	1.96
504.677	2.06
504.874	2.06
505.072	2
505.269	2.13
505.466	2.14
505.664	2.17
505.861	2.09
506.059	2.13
506.256	2.18
506.453	2.19
506.651	2.28
506.848	2.27
507.045	2.26
507.242	2.27
507.44	2.3
507.637	2.32
507.834	2.27
508.031	2.4
508.229	2.35
508.426	2.34
508.623	2.43
508.82	2.38
509.017	2.37
509.214	2.4
509.411	2.44
509.608	2.43
509.805	2.49
510.003	2.48
510.2	2.51
510.397	2.63
510.594	2.52
510.791	2.58
510.988	2.56
511.184	2.54
511.381	2.47
511.578	2.6
511.775	2.68
511.972	2.59
512.169	2.63
512.366	2.64
512.563	2.73
512.76	2.72
512.956	2.79
513.153	2.71
513.35	2.71
513.547	2.69
513.744	2.76
513.94	2.72
514.137	2.83
514.334	2.76
514.53	2.82
514.727	2.94
514.924	2.86
515.12	2.83
515.317	2.87
515.514	2.87
515.71	2.82
515.907	2.93
516.103	2.92
516.3	2.92
516.497	2.98
516.693	2.96
516.89	2.97
517.086	2.98
517.283	2.99
517.479	2.92
517.676	3.04
517.872	3.02
518.068	3.02
518.265	3.08
518.461	3.01
518.658	3.06
518.854	3.07
519.05	3.09
519.247	3.14
519.443	3.11
519.639	3.14
519.836	3.08
520.032	3.09
520.228	3.16
520.424	3.17
520.621	3.21
520.817	3.18
521.013	3.11
521.209	3.25
521.405	3.28
521.601	3.25
521.798	3.21
521.994	3.29
522.19	3.18
522.386	3.21
522.582	3.25
522.778	3.27
522.974	3.28
523.17	3.28
523.366	3.24
523.562	3.29
523.758	3.25
523.954	3.19
524.15	3.29
524.346	3.31
524.542	3.31
524.738	3.31
524.934	3.39
525.129	3.35
525.325	3.33
525.521	3.36
525.717	3.41
525.913	3.38
526.109	3.36
526.304	3.41
526.5	3.4
526.696	3.44
526.892	3.38
527.087	3.45
527.283	3.39
527.479	3.42
527.674	3.36
527.87	3.43
528.066	3.44
528.261	3.46
528.457	3.42
528.653	3.46
528.848	3.47
529.044	3.52
529.239	3.45
529.435	3.49
529.63	3.39
529.826	3.48
530.021	3.49
530.217	3.54
530.412	3.45
530.608	3.52
530.803	3.45
530.999	3.41
531.194	3.46
531.389	3.57
531.585	3.5
531.78	3.57
531.975	3.5
532.171	3.57
532.366	3.56
532.561	3.52
532.757	3.51
532.952	3.61
533.147	3.52
533.342	3.56
533.538	3.5
533.733	3.65
533.928	3.43
534.123	3.56
534.318	3.55
534.513	3.52
534.709	3.65
534.904	3.59
535.099	3.61
535.294	3.58
535.489	3.62
535.684	3.57
535.879	3.54
536.074	3.63
536.269	3.56
536.464	3.6
536.659	3.58
536.854	3.56
537.049	3.66
537.244	3.62
537.439	3.59
537.634	3.65
537.828	3.65
538.023	3.59
538.218	3.57
538.413	3.53
538.608	3.65
538.803	3.62
538.997	3.59
539.192	3.65
539.387	3.64
539.582	3.59
539.776	3.59
539.971	3.67
540.166	3.67
540.36	3.6
540.555	3.67
540.75	3.65
540.944	3.65
541.139	3.64
541.334	3.63
541.528	3.69
541.723	3.7
541.917	3.64
542.112	3.61
542.306	3.59
542.501	3.57
542.695	3.65
542.89	3.57
543.084	3.65
543.279	3.67
543.473	3.7
543.668	3.66
543.862	3.61
544.056	3.6
544.251	3.64
544.445	3.69
544.64	3.7
544.834	3.54
545.028	3.52
545.222	3.68
545.417	3.76
545.611	3.72
545.805	3.67
546	3.6
546.194	3.68
546.388	3.69
546.582	3.62
546.776	3.65
546.97	3.65
547.165	3.67
547.359	3.67
547.553	3.64
547.747	3.61
547.941	3.72
548.135	3.68
548.329	3.67
548.523	3.67
548.717	3.6
548.911	3.65
549.105	3.59
549.299	3.68
549.493	3.7
549.687	3.63
549.881	3.69
550.075	3.73
550.269	3.6
550.463	3.74
550.657	3.64
550.85	3.68
551.044	3.62
551.238	3.73
551.432	3.7
551.626	3.67
551.82	3.73
552.013	3.62
552.207	3.74
552.401	3.72
552.594	3.61
552.788	3.66
552.982	3.65
553.176	3.6
553.369	3.8
553.563	3.72
553.756	3.63
553.95	3.7
554.144	3.69
554.337	3.76
554.531	3.64
554.724	3.7
554.918	3.7
555.111	3.7
555.305	3.68
555.498	3.69
555.692	3.72
555.885	3.71
556.079	3.66
556.272	3.67
556.466	3.69
556.659	3.68
556.852	3.71
557.046	3.65
557.239	3.6
557.432	3.67
557.626	3.68
557.819	3.7
558.012	3.72
558.206	3.74
558.399	3.73
558.592	3.67
558.785	3.69
558.979	3.69
559.172	3.69
559.365	3.7
559.558	3.65
559.751	3.67
559.944	3.74
560.138	3.73
560.331	3.7
560.524	3.66
560.717	3.66
560.91	3.67
561.103	3.69
561.296	3.65
561.489	3.71
561.682	3.72
561.875	3.75
562.068	3.73
562.261	3.66
562.454	3.73
562.647	3.66
562.84	3.71
563.032	3.71
563.225	3.63
563.418	3.64
563.611	3.72
563.804	3.7
563.997	3.62
564.19	3.56
564.382	3.72
564.575	3.65
564.768	3.66
564.961	3.7
565.153	3.67
565.346	3.64
565.539	3.72
565.731	3.65
565.924	3.72
566.117	3.73
566.309	3.73
566.502	3.66
566.695	3.65
566.887	3.73
567.08	3.68
567.272	3.68
567.465	3.63
567.657	3.69
567.85	3.65
568.042	3.71
568.235	3.72
568.427	3.66
568.62	3.63
568.812	3.66
569.005	3.7
569.197	3.59
569.389	3.68
569.582	3.71
569.774	3.67
569.966	3.64
570.159	3.61
570.351	3.59
570.543	3.63
570.736	3.64
570.928	3.54
571.12	3.68
571.312	3.63
571.505	3.53
571.697	3.67
571.889	3.65
572.081	3.64
572.273	3.59
572.465	3.63
572.658	3.64
572.85	3.67
573.042	3.66
573.234	3.61
573.426	3.64
573.618	3.59
573.81	3.65
574.002	3.65
574.194	3.65
574.386	3.6
574.578	3.52
574.77	3.58
574.962	3.57
575.154	3.56
575.346	3.62
575.538	3.54
575.729	3.57
575.921	3.64
576.113	3.62
576.305	3.61
576.497	3.64
576.689	3.56
576.88	3.54
577.072	3.64
577.264	3.55
577.456	3.58
577.647	3.54
577.839	3.65
578.031	3.61
578.223	3.55
578.414	3.5
578.606	3.59
578.798	3.6
578.989	3.55
579.181	3.57
579.372	3.59
579.564	3.56
579.755	3.56
579.947	3.49
580.139	3.57
580.33	3.47
580.522	3.54
580.713	3.49
580.905	3.49
581.096	3.58
581.287	3.55
581.479	3.55
581.67	3.55
581.862	3.54
582.053	3.5
582.244	3.38
582.436	3.51
582.627	3.45
582.818	3.53
583.01	3.41
583.201	3.51
583.392	3.52
583.583	3.48
583.775	3.39
583.966	3.46
584.157	3.46
584.348	3.53
584.54	3.44
584.731	3.49
584.922	3.42
585.113	3.39
585.304	3.52
585.495	3.49
585.686	3.49
585.877	3.52
586.068	3.47
586.259	3.47
586.45	3.41
586.641	3.36
586.832	3.41
587.023	3.44
587.214	3.41
587.405	3.41
587.596	3.39
587.787	3.43
587.978	3.38
588.169	3.4
588.36	3.35
588.551	3.39
588.742	3.38
588.932	3.45
589.123	3.3
589.314	3.42
589.505	3.37
589.696	3.37
589.886	3.34
590.077	3.36
590.268	3.32
590.458	3.26
590.649	3.26
590.84	3.4
591.03	3.34
591.221	3.29
591.412	3.26
591.602	3.36
591.793	3.3
591.984	3.3
592.174	3.25
592.365	3.44
592.555	3.19
592.746	3.26
592.936	3.27
593.127	3.37
593.317	3.28
593.508	3.31
593.698	3.25
593.889	3.27
594.079	3.28
594.269	3.14
594.46	3.19
594.65	3.26
594.84	3.21
595.031	3.18
595.221	3.18
595.411	3.16
595.602	3.18
595.792	3.16
595.982	3.14
596.172	3.24
596.363	3.16
596.553	3.17
596.743	3.18
596.933	3.13
597.123	3.13
597.314	3.05
597.504	3.07
597.694	3.16
597.884	3.15
598.074	3.12
598.264	3.08
598.454	3.13
598.644	3.1
598.834	3.11
599.024	3.01
599.214	3.05
599.404	3.15
599.594	3.04
599.784	3.05
599.974	3.17
600.164	3.06
600.354	3
600.544	2.98
600.734	3.05
600.924	3.03
601.114	2.95
601.303	3
601.493	2.97
601.683	3.03
601.873	2.97
602.063	2.97
602.252	3
602.442	2.93
602.632	2.92
602.821	2.91
603.011	2.94
603.201	2.89
603.39	2.87
603.58	2.84
603.77	2.92
603.959	2.98
604.149	2.92
604.339	2.95
604.528	2.97
604.718	2.91
604.907	2.86
605.097	2.81
605.286	2.82
605.476	2.84
605.665	2.88
605.855	2.86
606.044	2.88
606.234	2.87
606.423	2.79
606.612	2.83
606.802	2.81
606.991	2.83
607.181	2.8
607.37	2.8
607.559	2.64
607.749	2.76
607.938	2.74
608.127	2.75
608.316	2.76
608.506	2.73
608.695	2.78
608.884	2.74
609.073	2.72
609.263	2.78
609.452	2.74
609.641	2.7
609.83	2.62
610.019	2.7
610.208	2.67
610.397	2.69
610.586	2.7
610.775	2.68
610.965	2.68
611.154	2.56
611.343	2.61
611.532	2.6
611.721	2.65
611.91	2.56
612.099	2.63
612.287	2.54
612.476	2.5
612.665	2.58
612.854	2.54
613.043	2.59
613.232	2.61
613.421	2.53
613.61	2.53
613.798	2.54
613.987	2.52
614.176	2.53
614.365	2.57
614.554	2.51
614.742	2.57
614.931	2.44
615.12	2.53
615.309	2.47
615.497	2.47
615.686	2.39
615.875	2.46
616.063	2.42
616.252	2.43
616.44	2.43
616.629	2.43
616.818	2.41
617.006	2.4
617.195	2.39
617.383	2.39
617.572	2.37
617.76	2.33
617.949	2.33
618.137	2.41
618.326	2.38
618.514	2.25
618.703	2.25
618.891	2.38
619.079	2.26
619.268	2.38
619.456	2.23
619.644	2.38
619.833	2.29
620.021	2.27
620.209	2.21
620.398	2.3
620.586	2.25
620.774	2.29
620.962	2.26
621.151	2.31
621.339	2.2
621.527	2.17
621.715	2.19
621.903	2.15
622.092	2.16
622.28	2.22
622.468	2.14
622.656	2.19
622.844	2.16
623.032	2.19
623.22	2.05
623.408	2.28
623.596	2.12
623.784	2.16
623.972	2.09
624.16	2.12
624.348	2.16
624.536	2.15
624.724	2.08
624.912	2.13
625.1	2.07
625.288	2.08
625.476	2.06
625.664	2.07
625.851	1.99
626.039	2.1
626.227	2.03
626.415	2.05
626.603	1.95
626.79	2.06
626.978	2.04
627.166	2.04
627.354	1.99
627.541	1.95
627.729	1.86
627.917	2.11
628.104	2.02
628.292	1.95
628.48	1.98
628.667	1.97
628.855	1.98
629.042	2
629.23	1.93
629.418	1.99
629.605	1.93
629.793	1.86
629.98	1.83
630.168	1.84
630.355	1.88
630.543	1.85
630.73	1.83
630.917	1.82
631.105	1.95
631.292	1.89
631.48	1.85
631.667	1.91
631.854	1.79
632.042	1.81
632.229	1.76
632.416	1.84
632.604	1.78
632.791	1.7
632.978	1.8
633.165	1.74
633.353	1.8
633.54	1.88
633.727	1.72
633.914	1.69
634.101	1.64
634.289	1.77
634.476	1.67
634.663	1.69
634.85	1.71
635.037	1.7
635.224	1.61
635.411	1.75
635.598	1.68
635.785	1.67
635.972	1.63
636.159	1.73
636.346	1.64
636.533	1.6
636.72	1.61
636.907	1.61
637.094	1.57
637.281	1.54
637.468	1.62
637.655	1.64
637.842	1.61
638.029	1.6
638.215	1.62
638.402	1.62
638.589	1.55
638.776	1.53
638.963	1.46
639.149	1.62
639.336	1.62
639.523	1.52
639.709	1.53
639.896	1.48
640.083	1.56
640.27	1.51
640.456	1.5
640.643	1.54
640.829	1.44
641.016	1.45
641.203	1.43
641.389	1.5
641.576	1.49
641.762	1.48
641.949	1.38
642.135	1.48
642.322	1.44
642.508	1.37
642.695	1.43
642.881	1.41
643.068	1.38
643.254	1.38
643.441	1.43
643.627	1.39
643.813	1.36
644	1.43
644.186	1.35
644.372	1.4
644.559	1.43
644.745	1.35
644.931	1.31
645.118	1.34
645.304	1.37
645.49	1.34
645.676	1.31
645.862	1.32
646.049	1.37
646.235	1.29
646.421	1.41
646.607	1.38
646.793	1.29
646.979	1.27
647.165	1.28
647.352	1.28
647.538	1.25
647.724	1.25
647.91	1.26
648.096	1.33
648.282	1.29
648.468	1.22
648.654	1.24
648.84	1.24
649.026	1.22
649.212	1.23
649.397	1.19
649.583	1.18
649.769	1.22
649.955	1.2
650.141	1.23
650.327	1.23
650.513	1.17
650.698	1.21
650.884	1.1
651.07	1.22
651.256	1.13
651.442	1.15
651.627	1.15
651.813	1.19
651.999	1.12
652.184	1.17
652.37	1.11
652.556	1.1
652.741	1.14
652.927	1.03
653.113	1.16
653.298	1.07
653.484	1.07
653.669	1.06
653.855	1.09
654.04	1.09
654.226	1.13
654.412	1.08
654.597	0.99
654.782	1.1
654.968	1.09
655.153	1.06
655.339	1.02
655.524	0.97
655.71	1.06
655.895	1.05
656.08	1.01
656.266	1.03
656.451	1.06
656.636	0.96
656.822	1.02
657.007	1.01
657.192	1.02
657.378	0.94
657.563	0.94
657.748	1.01
657.933	0.99
658.118	0.94
658.304	0.92
658.489	1.03
658.674	1
658.859	0.93
659.044	1
659.229	0.99
659.414	0.95
659.599	0.92
659.785	0.88
659.97	0.92
660.155	0.96
660.34	0.94
660.525	0.88
660.71	0.9
660.895	0.96
661.08	0.87
661.264	0.85
661.449	0.96
661.634	0.91
661.819	0.9
662.004	0.88
662.189	0.82
662.374	0.87
662.559	0.84
662.743	0.82
662.928	0.89
663.113	0.85
663.298	0.77
663.483	0.81
663.667	0.86
663.852	0.79
664.037	0.89
664.221	0.84
664.406	0.87
664.591	0.94
664.775	0.88
664.96	0.8
665.145	0.8
665.329	0.83
665.514	0.78
665.698	0.78
665.883	0.72
666.068	0.83
666.252	0.8
666.437	0.71
666.621	0.78
666.806	0.8
666.99	0.79
667.174	0.71
667.359	0.83
667.543	0.72
667.728	0.76
667.912	0.7
668.096	0.8
668.281	0.74
668.465	0.77
668.649	0.72
668.834	0.7
669.018	0.74
669.202	0.7
669.387	0.71
669.571	0.76
669.755	0.68
669.939	0.71
670.124	0.69
670.308	0.76
670.492	0.76
670.676	0.7
670.86	0.67
671.044	0.69
671.228	0.73
671.413	0.65
671.597	0.66
671.781	0.68
671.965	0.71
672.149	0.72
672.333	0.64
672.517	0.66
672.701	0.69
672.885	0.68
673.069	0.62
673.253	0.72
673.437	0.61
673.621	0.66
673.804	0.67
673.988	0.66
674.172	0.67
674.356	0.57
674.54	0.66
674.724	0.7
674.908	0.64
675.091	0.66
675.275	0.64
675.459	0.7
675.643	0.62
675.826	0.6
676.01	0.57
676.194	0.62
676.377	0.68
676.561	0.65
676.745	0.62
676.928	0.65
677.112	0.7
677.296	0.54
677.479	0.54
677.663	0.56
677.846	0.66
678.03	0.64
678.213	0.6
678.397	0.63
678.58	0.54
678.764	0.58
678.947	0.54
679.131	0.55
679.314	0.62
679.498	0.54
679.681	0.58
679.865	0.68
680.048	0.53
680.231	0.55
680.415	0.59
680.598	0.54
680.781	0.51
680.965	0.52
681.148	0.55
681.331	0.51
681.514	0.57
681.698	0.49
681.881	0.56
682.064	0.55
682.247	0.56
682.43	0.42
682.614	0.56
682.797	0.56
682.98	0.55
683.163	0.47
683.346	0.55
683.529	0.52
683.712	0.44
683.895	0.49
684.078	0.47
684.261	0.48
684.444	0.49
684.627	0.52
684.81	0.45
684.993	0.47
685.176	0.52
685.359	0.41
685.542	0.41
685.725	0.54
685.908	0.48
686.091	0.47
686.274	0.56
686.457	0.47
686.639	0.54
686.822	0.52
687.005	0.49
687.188	0.52
687.371	0.58
687.553	0.53
687.736	0.49
687.919	0.57
688.102	0.53
688.284	0.47
688.467	0.51
688.65	0.44
688.832	0.43
689.015	0.45
689.197	0.4
689.38	0.57
689.563	0.51
689.745	0.42
689.928	0.43
690.11	0.45
690.293	0.48
690.475	0.36
690.658	0.46
690.84	0.43
691.023	0.44
691.205	0.4
691.388	0.43
691.57	0.52
691.752	0.45
691.935	0.36
692.117	0.44
692.3	0.44
692.482	0.4
692.664	0.43
692.847	0.4
693.029	0.51
693.211	0.44
693.393	0.4
693.576	0.37
693.758	0.43
693.94	0.37
694.122	0.42
694.304	0.37
694.487	0.43
694.669	0.51
694.851	0.32
695.033	0.43
695.215	0.37
695.397	0.36
695.579	0.41
695.761	0.39
695.943	0.33
696.125	0.45
696.308	0.41
696.49	0.3
696.671	0.5
696.853	0.37
697.035	0.6
697.217	0.43
697.399	0.4
697.581	0.3
697.763	0.39
697.945	0.37
698.127	0.35
698.309	0.32
698.491	0.33
698.672	0.41
698.854	0.43
699.036	0.45
699.218	0.35
699.399	0.42
699.581	0.42
699.763	0.4
699.945	0.31
700.126	0.28
700.308	0.34
700.49	0.33
700.671	0.29
700.853	0.32
701.035	0.31
701.216	0.37
701.398	0.28
701.579	0.31
701.761	0.44
701.943	0.31
702.124	0.29
702.306	0.32
702.487	0.47
702.669	0.37
702.85	0.28
703.031	0.28
703.213	0.46
703.394	0.38
703.576	0.31
703.757	0.41
703.938	0.34
704.12	0.47
704.301	0.31
704.483	0.29
704.664	0.36
704.845	0.47
705.026	0.35
705.208	0.34
705.389	0.31
705.57	0.36
705.751	0.3
705.933	0.3
706.114	0.45
706.295	0.34
706.476	0.28
706.657	0.44
706.838	0.35
707.02	0.38
707.201	0.24
707.382	0.3
707.563	0.34
707.744	0.23
707.925	0.25
708.106	0.25
708.287	0.34
708.468	0.4
708.649	0.34
708.83	0.41
709.011	0.28
709.192	0.35
709.373	0.2
709.554	0.3
709.734	0.35
709.915	0.39
710.096	0.28
710.277	0.2
710.458	0.32
710.639	0.31
710.819	0.19
711	0.21
711.181	0.38
711.362	0.4
711.542	0.31
711.723	0.28
711.904	0.35
712.085	0.26
712.265	0.32
712.446	0.17
712.627	0.29
712.807	0.27
712.988	0.31
713.168	0.15
713.349	0.31
713.53	0.15
713.71	0.15
713.891	0.26
714.071	0.27
714.252	0.25
714.432	0.26
714.613	0.18
714.793	0.33
714.974	0.36
715.154	0.33
715.334	0.34
715.515	0.37
715.695	0.26
715.876	0.21
716.056	0.23
716.236	0.29
716.417	0.24
716.597	0.24
716.777	0.5
716.957	0.27
717.138	0.3
717.318	0.25
717.498	0.11
717.678	0.29
717.859	0.31
718.039	0.18
718.219	0.28
718.399	0.32
718.579	0.2
718.759	0.22
718.939	0.24
719.12	0.21
719.3	0.25
719.48	0.11
719.66	0.18
719.84	0.32
720.02	0.24
720.2	0.18
720.38	0.18
720.56	0.34
720.74	0.1
720.92	0.24
721.1	0.35
721.279	0.35
721.459	0.25
721.639	0.26
721.819	0.22
721.999	0.2
722.179	0.29
722.359	0.08
722.538	0.24
722.718	0.29
722.898	0.26
723.078	0.2
723.257	0.21
723.437	0.27
723.617	0.27
723.797	0.3
723.976	0.27
724.156	0.2
724.336	0.32
724.515	0.34
724.695	0.16
724.874	0.29
725.054	0.26
725.234	0.13
725.413	0.24
725.593	0.16
725.772	0.2
725.952	0.2
726.131	0.2
726.311	0.19
726.49	0.17
726.67	0.16
726.849	0.22
727.028	0.23
727.208	0.15
727.387	0.3
727.567	0.1
727.746	0.2
727.925	0.22
728.105	0.15
728.284	0.18
728.463	0.18
728.643	0.25
728.822	0.07
729.001	0.13
729.18	0.25
729.359	0.31
729.539	0.19
729.718	0.26
729.897	0.31
730.076	0.25
730.255	0.12
730.434	0.19
730.614	0.22
730.793	0.25
730.972	0.2
731.151	0.23
731.33	0.33
731.509	0.16
731.688	0.26
731.867	0.2
732.046	0.09
732.225	0.44
732.404	0.13
732.583	0.11
732.762	0.2
732.941	0.29
733.12	0.28
733.298	0.27
733.477	0.34
733.656	0.12
733.835	0.16
734.014	0.31
734.193	0.2
734.371	0.29
734.55	0.26
734.729	0.06
734.908	0.24
735.086	0.28
735.265	0.32
735.444	0.02
735.623	0.13
735.801	0.15
735.98	0.24
736.159	0.23
736.337	0.35
736.516	0.26
736.694	0.24
736.873	0.18
737.052	0.51
737.23	0.4
737.409	0.25
737.587	0.39
737.766	0.09
737.944	0.23
738.123	0.37
738.301	0.28
738.479	0.1
738.658	0.31
738.836	0.05
739.015	0.27
739.193	0.35
739.371	0.12
739.55	0.11
739.728	0.14
739.906	0.36
740.085	0.31
740.263	0.18
740.441	0.03
740.62	0.4
740.798	0.3
740.976	0.11
741.154	0.07
741.332	0.43
741.511	0.09
741.689	0.16
741.867	0.24
742.045	0.32
742.223	0.2
742.401	0.04
742.579	0.2
742.757	0.23
742.935	0.12
743.114	0.13
743.292	0.12
743.47	0.21
743.648	0.22
743.826	0.25
744.004	0.27
744.181	0.23
744.359	0.13
744.537	0.14
744.715	0.2
744.893	0.21
745.071	0.18
745.249	0.16
745.427	0.22
745.605	0.23
745.782	0.32
745.96	0.3
746.138	0.31
746.316	0.32
746.493	0.14
746.671	0.15
746.849	0.18
747.027	0.33
747.204	0.05
747.382	0.3
747.56	0.09
747.737	0.16
747.915	0.21
748.093	0.26
748.27	0
748.448	0.2
748.625	-0.05
748.803	0.12
748.98	0.09
749.158	0.23
749.335	0.35
749.513	0.19
749.69	0.14
749.868	0.13
750.045	0.24
750.223	0.08
750.4	0
750.578	0.34
750.755	0.14
750.932	0.04
751.11	0.26
751.287	0.07
751.464	0.36
751.642	0.14
751.819	0.15
751.996	0.27
752.173	0.03
752.351	0.12
752.528	0.18
752.705	0.1
752.882	0.14
753.06	0.18
753.237	0.27
753.414	0.37
753.591	0.3
753.768	0.3
753.945	0.1
754.122	0.08
754.299	0.35
754.476	0.08
754.654	0.15
754.831	0.29
755.008	0.28
755.185	0.19
755.362	0.03
755.539	0.19
755.716	0.05
755.892	0.11
756.069	0.19
756.246	0.11
756.423	0.17
756.6	0.34
756.777	0.13
756.954	0.3
757.131	0.11
757.307	0.09
757.484	0.1
757.661	0.21
757.838	0.17
758.015	-0.06
758.191	0.14
758.368	0.1
758.545	0.27
758.721	0.21
758.898	0.09
759.075	0.19
759.251	0.24
759.428	0.22
759.605	0.12
759.781	0.15
759.958	0.29
760.134	0.11
760.311	0.08
760.488	0.3
760.664	0.24
760.841	0.09
761.017	0.11
761.194	0.22
761.37	0.21
761.547	0.15
761.723	0.14
761.899	0.22
762.076	0.09
762.252	0.07
762.429	0.16
762.605	0.22
762.781	0.15
762.958	0.32
763.134	0.12
763.31	0.08
763.486	0.25
763.663	0.04
763.839	0.26
764.015	-0.11
764.191	0.15
764.368	0.21
764.544	0.05
764.72	0.12
764.896	0.29
765.072	0.21
765.248	0.16
765.425	0.16
765.601	0.25
765.777	0.09
765.953	0.04
766.129	0.2
766.305	0.01
766.481	0.33
766.657	0.18
766.833	0.31
767.009	0.07
767.185	0.12
767.361	0.24
767.537	0.11
767.713	0.34
767.889	0.13
768.065	0.09
768.24	0.13
768.416	0.24
768.592	0.05
768.768	0.15
768.944	0.28
769.12	0.08
769.295	0.11
769.471	0.1
769.647	0.18
769.823	0.33
769.998	0.03
770.174	0.07
770.35	0.61
770.525	0.51
770.701	0.14
770.877	0.15
771.052	0.09
771.228	0.28
771.403	0.21
771.579	0.2
771.755	0.3
771.93	0.11
772.106	0.13
772.281	-0.09
772.457	0.29
772.632	0.22
772.808	0.03
772.983	0.19
773.159	0.02
773.334	0.3
773.509	0.12
773.685	-0.02
773.86	0.45
774.036	0.37
774.211	0.16
774.386	0.13
774.562	0.04
774.737	0.41
774.912	0.04
775.087	0.35
775.263	0.14
775.438	0.16
775.613	0.1
775.788	0.27
775.964	0.46
776.139	0.63
776.314	0.02
776.489	0.02
776.664	0.2
776.839	0.11
777.014	0.34
777.19	0.12
777.365	0.43
777.54	0.34
777.715	0.03
777.89	0.05
778.065	0.03
778.24	0.24
778.415	0.38
778.59	0.04
778.765	0.14
778.94	0.21
779.115	0.1
779.289	0.11
779.464	0.16
779.639	0.12
779.814	-0.01
779.989	-0.04
780.164	0.3
780.339	0.17
780.513	0.15
780.688	0.15
780.863	0.24
781.038	0.26
781.212	0.14
781.387	0.32
781.562	0.46
781.737	0.25
781.911	0.32
782.086	0.08
782.261	0.26
782.435	0.49
782.61	0.16
782.784	0.24
782.959	0.23
783.134	0.2
783.308	-0.08
783.483	0.06
783.657	0.69
783.832	0.4
784.006	-0
784.181	0.29
784.355	0.27
784.53	-0.13
784.704	0.06
784.878	0.33
785.053	0.35
785.227	0.49
785.402	0.61
785.576	-0.06
785.75	0.16
785.925	-0.03
786.099	0.25
786.273	0.28
786.448	0.43
786.622	0.5
786.796	0.18
786.97	0.25
787.145	0.47
787.319	-0.16
787.493	0.06
787.667	-0.05
787.841	0.28
788.015	0.54
788.19	0.12
788.364	0.15
788.538	0.44
788.712	0.42
788.886	0.26
789.06	0.43
789.234	0.3
789.408	0.07
789.582	0.18
789.756	0.19
789.93	0.05
790.104	0.16
790.278	0.01
790.452	-0
790.626	0.29
790.8	0.11
790.973	0.34
791.147	0.4
791.321	0.33
791.495	0.4
791.669	0.25
791.843	0.09
792.016	0.36
792.19	0.63
792.364	-0.09
792.538	0.71
792.711	0.66
792.885	0.12
793.059	-0.15
793.233	-0.16
793.406	0.55
793.58	0.33
793.754	0.25
793.927	0.08
794.101	0.49
794.274	0.14
794.448	0.3
794.622	-0.17
794.795	0.84
794.969	0.08
795.142	0.6
795.316	0.01
795.489	0.2
795.663	0.55
795.836	0.48
796.009	-0.04
796.183	0.55
796.356	0.3
796.53	0.26
796.703	0.21
796.876	0.88
797.05	0
797.223	0.01
797.396	0.31
797.57	0.3
797.743	0.58
797.916	0.35
798.09	0.57
798.263	0.41
798.436	0.13
798.609	0.44
798.782	0.05
798.956	0.49
799.129	-0
799.302	0.14
799.475	0.21
799.648	0.07
799.821	0.06
799.994	0.1
800.167	-0.16
800.34	0.23
800.514	0.32
800.687	0.27
800.86	0.28
801.033	0.13
801.206	0.32
801.379	0.19
801.551	0.52
801.724	0.61
801.897	0.84
802.07	0.31
802.243	-0.35
802.416	0.37
802.589	0.05
802.762	0.29
802.935	0.26
803.107	0.66
803.28	0.5
803.453	0.74
803.626	0.06
803.798	0.37
803.971	0.46
804.144	0.38
804.317	0.44
804.489	0.41
804.662	0.28
804.835	0.16
805.007	-0.18
805.18	0.81
805.353	0.26
805.525	-0.11
805.698	-0.23
805.87	0.59
806.043	0.41
806.215	0.19
806.388	0.01
806.56	0.47
806.733	0.67
806.905	0.33
807.078	0.04
807.25	-0.02
807.423	0.68
807.595	0.28
807.768	0.19
807.94	0.53
808.112	0.8
808.285	0.31
808.457	0.08
808.629	0.32
808.802	0.77
808.974	0.45
809.146	0.33
809.318	0.35
809.491	0.19
809.663	0.79
809.835	0.22
810.007	0.38
810.18	0.49
810.352	-0.22
810.524	0.44
810.696	0.64
810.868	0.82
811.04	0.12
811.212	0.18
811.384	0.74
811.556	0.39
811.728	0.11
811.901	1.27
812.073	0.27
812.245	0.61
812.417	0.22
812.589	-0.16
812.76	0.19
812.932	0.72
813.104	0.72
813.276	0.11
813.448	0.6
813.62	0.32
813.792	0.66
813.964	0.08
814.136	0.35
814.307	-0.17
814.479	0.24
814.651	0.14
814.823	1.35
814.995	0.27
815.166	0.3
815.338	-0.06
815.51	-0.32
815.681	1.29
815.853	0.62
816.025	0.27
816.196	0.8
816.368	0.39
816.54	-0.05
816.711	0.4
816.883	0.91
817.054	1.16
817.226	-0.36
817.398	0.34
817.569	-0.07
817.741	0.26
817.912	0.38
818.084	0.11
818.255	0.49
818.426	-0.16
818.598	0.54
818.769	0.07
818.941	0.28
819.112	0.88
819.283	0.68
819.455	0.09
819.626	0.49
819.798	0.54
819.969	0.38
820.14	0.38
820.311	0.04
820.483	0.57
820.654	0.09
820.825	0.34
820.996	0.09
821.168	-0.07
821.339	0.15
821.51	-0.16
821.681	0.11
821.852	0.58
822.023	-0.21
822.195	-0.1
822.366	0.58
822.537	0.02
822.708	0.63
822.879	0.03
823.05	0.32
823.221	0.01
823.392	0.58
823.563	0.11
823.734	0.3
823.905	0.31
824.076	0.1
824.247	0.27
824.418	0.31
824.589	0.95
824.759	0.3
824.93	0.26
825.101	-0.02
825.272	1.4
825.443	0.98
825.614	1.43
825.784	-0.78
825.955	1.83
826.126	1.07
826.297	0.45
826.467	1.52
826.638	1.04
826.809	-0.02
826.98	0.32
827.15	0.75
827.321	0.06
827.492	0.79
827.662	0.81
827.833	1.32
828.003	1.46
828.174	-0.3
828.345	-0.38
828.515	0.84
828.686	0.15
828.856	0
829.027	0.32
829.197	0.13
829.368	0.68
829.538	0.08
829.709	0.09
829.879	0.74
830.049	0.3
830.22	-0.12
830.39	-0.12
830.56	1.14
830.731	-0.04
830.901	0.3
831.072	0.78
831.242	0.48
831.412	0.24
831.582	0.52
831.753	-0.35
831.923	1.05
832.093	0.46
832.263	0.38
832.434	-0.01
832.604	0.17
832.774	1.07
832.944	0.31
833.114	0.47
833.284	0.92
833.454	0.04
833.624	-0.17
833.795	0.26
833.965	1.45
834.135	1.21
834.305	-0.38
834.475	0.12
834.645	0.33
834.815	0.24
834.985	0.03
835.155	0.34
835.325	0.6
835.494	0.78
835.664	0.58
835.834	-0.18
836.004	0.4
836.174	0.82
836.344	0.37
836.514	-0.69
836.684	0.24
836.853	0.62
837.023	0.77
837.193	-0.22
837.363	1.3
837.532	0.71
837.702	0.32
837.872	-0.23
838.041	2
838.211	2.38
838.381	-0.23
838.55	0.43
838.72	2.25
838.89	1.63
839.059	0.72
839.229	-0.51
839.398	1.97
839.568	0.68
839.738	0
839.907	1.57
840.077	0.4
840.246	0.22
840.416	-0.25
840.585	0.01
840.755	1.91
840.924	0.78
841.093	0.37
841.263	0.4
841.432	0.52
841.602	0.67
841.771	0.9
841.94	0.36
842.11	2.31
842.279	2.02
842.448	-0.23
842.617	-0.23
842.787	1.16
842.956	-0.2
843.125	0.24
843.294	1.02
843.464	1.54
843.633	0.78
843.802	0.13
843.971	0.16
844.14	1.02
844.309	1.85
844.479	-0.03
844.648	-0.1
844.817	0.53
844.986	0.43
845.155	0.4
845.324	0.26
845.493	-0.07
845.662	-0.66
845.831	0.65
846	1.32
846.169	0.89
846.338	1
846.507	0.82
846.676	0.41
846.844	0.5
847.013	1.32
847.182	1.09
847.351	-0.38
847.52	0.46
847.689	0.75
847.858	0.13
848.026	-0.9
848.195	0.45
848.364	0.57
848.533	0.13
848.701	0.04
848.87	1.27
849.039	2.18
849.207	0.9
849.376	0.89
849.545	2.18
849.713	0.25
849.882	0.53
850.051	0.39
850.219	1.21
850.388	1.17
850.556	0.7
850.725	-0.1
850.893	0.99
851.062	0.6
851.23	1.76
851.399	-0.66
851.567	0.18
851.736	1
851.904	-0.21
852.073	0.41
852.241	1.96
852.41	0.16
852.578	0.83
852.746	-0.21
852.915	0.67
853.083	0.72
853.251	-0.8
853.42	0.97
853.588	0.58
853.756	1.49
853.924	0.37
854.093	0.59
854.261	0.91
854.429	-0.62
854.597	0.49
854.765	-0.58
854.934	1.07
855.102	2.27
855.27	0.5
855.438	2.09
855.606	1.34
855.774	2.94
855.942	-0.16
856.11	-1.12
856.278	0.3
856.446	1.94
856.614	0.95
856.782	0.58
856.95	1.64
857.118	1.45
857.286	1.24
857.454	-1.15
857.622	1.28
857.79	1.63
857.958	-0.27
858.126	-0.02
858.294	-1.85
858.462	2.3
858.629	0.65
858.797	0.81
858.965	0.82
859.133	0.38
859.301	0.22
859.468	1.4
859.636	-0.76
859.804	2.27
859.971	1.35
860.139	-0.24
860.307	1.41
860.474	1.44
860.642	-0.23
860.81	0.19
860.977	1.85
861.145	1.68
861.313	0.75
861.48	0.78
861.648	2.67
861.815	-0.13
861.983	0.1
862.15	0.62
862.318	1.83
862.485	2.29
862.653	-0.81
862.82	0.09
862.988	3.31
863.155	1.22
863.322	0.14
863.49	1.21
863.657	-0.1
863.824	3.14
863.992	1.28
864.159	0.48
864.326	1.6
864.494	-0.41
864.661	4.82
864.828	-1.22
864.996	1.42
865.163	2.87
865.33	-0.42
865.497	-0.92
865.664	1.08
865.832	-1.28
865.999	0.52
866.166	-0.04
866.333	-0.77
866.5	0.25
866.667	0.83
866.834	-0.37
867.001	2.48
867.168	-0.23
867.335	1.39
867.502	-0.97
867.669	1.8
867.836	2.73
868.003	0.2
868.17	1.94
868.337	-0.59
868.504	4.78
868.671	-1.01
868.838	-0.19
869.005	1.34
869.172	2.38
869.339	0.79
869.505	0.72
869.672	1.65
869.839	3.53
870.006	0.62
870.173	-0.67
870.339	0.76
870.506	3.69
870.673	0.36
870.84	0.88
871.006	2.64
871.173	1.31
871.34	1.37
871.506	-0.3
871.673	1.36
871.839	-0.89
872.006	0.53
872.173	1.26
872.339	1.28
872.506	2.61
872.672	0.16
872.839	-0.61
873.005	2.36
873.172	2.03
873.338	1.41
873.505	-0.26
873.671	1.76
873.838	2.84
874.004	-0.16
874.171	-0.78
874.337	2.18
874.503	3.29
874.67	0.96
874.836	1.84
875.002	3.6
875.169	2.35
875.335	1.63
875.501	-0.73
875.668	1.08
875.834	2.33
876	0.79
876.166	2.39
876.332	2.29
876.499	4.09
876.665	0.26
876.831	-0.5
876.997	3.51
877.163	2.49
877.329	-0.48
877.495	1.09
877.662	3.64
877.828	2.17
877.994	0.97
878.16	-1.89
878.326	0.36
878.492	0.66
878.658	0.32
878.824	1.05
878.99	2.89
879.156	-0.21
879.322	4.56
879.487	-1.04
879.653	0.64
879.819	1.5
879.985	1.01
880.151	1.32
880.317	1.04
880.483	1.45
880.648	2.87
880.814	-2.88
880.98	2.84
881.146	-0.67
881.312	-0.01
881.477	2.58
881.643	1.76
881.809	2.85
881.974	2.7
882.14	-0.76
882.306	-0.63
882.471	4.89
882.637	0.61
882.803	1.64
882.968	5.13
883.134	6.16
883.299	0.35
883.465	0.98
883.63	1.5
883.796	1.58
883.961	1.27
884.127	1.11
884.292	-3.46
884.458	-0.25
884.623	-0.25
