Data from Apollo_Calib_20240827__AbsoluteIrradiance__733__11-22-03-090.txt Node

Date: Wed Aug 28 11:22:03 BST 2024
User: biology
Spectrometer: FLMT08252
Trigger mode: 0
Integration Time (sec): 5.000000E-1
Scans to average: 5
Electric dark correction enabled: true
Nonlinearity correction enabled: false
Boxcar width: 0
XAxis mode: Wavelengths
Number of Pixels in Spectrum: 3648
>>>>>Begin Spectral Data<<<<<
179.588	-0
179.809	-0
180.03	-0
180.251	-0
180.473	-0
180.694	0
180.915	0
181.136	-0
181.357	0
181.578	-0
181.799	-0
182.02	-0
182.241	0
182.462	-0
182.683	0
182.904	-0
183.125	-0
183.346	0
183.567	0
183.788	0
184.009	0
184.23	0
184.451	0
184.672	0
184.892	0
185.113	0
185.334	0
185.555	0
185.776	0
185.996	0
186.217	0
186.438	0
186.659	0
186.879	0
187.1	0
187.321	0
187.541	0
187.762	0
187.983	0
188.203	0
188.424	0
188.644	0
188.865	0
189.086	0
189.306	0
189.527	0
189.747	0
189.968	0
190.188	0
190.409	0
190.629	0
190.849	0
191.07	0
191.29	0
191.511	0
191.731	-0
191.951	0
192.172	0
192.392	0
192.612	0
192.833	0
193.053	0
193.273	0
193.493	0
193.714	0
193.934	0
194.154	0
194.374	0
194.594	0
194.815	0
195.035	0
195.255	0
195.475	0
195.695	0
195.915	0
196.135	0
196.355	0
196.575	0
196.795	0
197.015	0
197.235	0
197.455	0
197.675	0
197.895	0
198.115	0
198.335	0
198.555	0
198.775	0
198.995	0
199.214	0
199.434	0
199.654	0
199.874	0
200.094	2.03
200.313	0.92
200.533	1.06
200.753	0.01
200.973	1.7
201.192	1.23
201.412	0.33
201.632	0.72
201.851	1.92
202.071	0.06
202.291	0.61
202.51	0.14
202.73	1.27
202.95	0.88
203.169	0.35
203.389	0.72
203.608	1.02
203.828	0.05
204.047	0.23
204.267	1.2
204.486	0.68
204.706	0.93
204.925	0.57
205.145	0.02
205.364	0.75
205.583	1.11
205.803	0.2
206.022	0.11
206.242	1.05
206.461	0.85
206.68	0.2
206.9	0.69
207.119	1.12
207.338	1.32
207.557	0.25
207.777	0.47
207.996	0.7
208.215	1.39
208.434	0.45
208.654	0.35
208.873	0.83
209.092	1.04
209.311	0.3
209.53	0.36
209.749	0.37
209.968	0.27
210.187	0.55
210.407	-0.05
210.626	0.25
210.845	0.7
211.064	0.6
211.283	0.27
211.502	0.63
211.721	0.59
211.94	0.38
212.159	0.47
212.377	0.62
212.596	0.85
212.815	0.58
213.034	0.55
213.253	0.71
213.472	0.77
213.691	0.29
213.91	0.2
214.128	0.38
214.347	0.78
214.566	0.02
214.785	0.14
215.003	0.51
215.222	0.74
215.441	0.34
215.66	0.22
215.878	0.36
216.097	0.48
216.316	0.28
216.534	0.4
216.753	0.51
216.972	0.49
217.19	0.18
217.409	0.09
217.627	0.22
217.846	0.38
218.064	0.42
218.283	0.28
218.501	0.79
218.72	0.53
218.938	0.1
219.157	0.18
219.375	0.54
219.594	0.45
219.812	0.11
220.031	0.03
220.249	0.8
220.467	0.63
220.686	0.19
220.904	0.07
221.122	0.2
221.341	0.78
221.559	0.27
221.777	0.22
221.995	0.35
222.214	0.58
222.432	0.22
222.65	0.48
222.868	0.41
223.086	0.34
223.305	0.56
223.523	0.23
223.741	0.66
223.959	0.29
224.177	0.04
224.395	0.23
224.613	0.31
224.831	0.56
225.049	0.18
225.267	0.22
225.485	0.35
225.703	0.24
225.921	0.23
226.139	0.24
226.357	0.33
226.575	0.34
226.793	0.15
227.011	0.81
227.229	0.33
227.447	0.44
227.665	0.18
227.883	0.18
228.1	0.25
228.318	0.39
228.536	0.09
228.754	0.08
228.972	0.3
229.189	0.45
229.407	0.32
229.625	0.1
229.843	0.36
230.06	0.37
230.278	0.14
230.496	0.24
230.713	0.25
230.931	0.42
231.149	0.16
231.366	0.05
231.584	0.17
231.801	0.66
232.019	0.21
232.236	0.02
232.454	0.12
232.671	0.31
232.889	0.22
233.106	0.07
233.324	0.16
233.541	0.21
233.759	0.31
233.976	0.1
234.194	0.23
234.411	0.21
234.628	0.16
234.846	0.14
235.063	0.26
235.28	0.23
235.498	0.19
235.715	0.13
235.932	0.35
236.149	0.23
236.367	0.09
236.584	0.26
236.801	0.21
237.018	0.25
237.236	0.29
237.453	0.07
237.67	0.29
237.887	0.21
238.104	0.22
238.321	0.05
238.538	0.15
238.755	0.37
238.973	0.01
239.19	0.26
239.407	0.12
239.624	0.33
239.841	0.15
240.058	0.05
240.275	0.23
240.492	0.25
240.709	0.23
240.925	0.18
241.142	0.24
241.359	0.12
241.576	0.11
241.793	0.08
242.01	0.1
242.227	0.4
242.444	0.26
242.66	0.36
242.877	0.19
243.094	0.15
243.311	0.27
243.527	0.09
243.744	0.33
243.961	0.2
244.178	0.17
244.394	0.13
244.611	0.33
244.828	0.38
245.044	0.15
245.261	0.12
245.477	0.21
245.694	0.23
245.911	0.09
246.127	0.18
246.344	0.33
246.56	0.3
246.777	0.2
246.993	0.23
247.21	0.19
247.426	0.26
247.643	0.13
247.859	0.08
248.076	0.17
248.292	0.3
248.508	0.18
248.725	0.15
248.941	0.18
249.157	0.3
249.374	0.09
249.59	0.12
249.806	0.18
250.023	0.32
250.239	0.05
250.455	0.14
250.671	0.17
250.888	0.18
251.104	0.21
251.32	0.17
251.536	0.13
251.752	0.15
251.969	0.18
252.185	0.18
252.401	0.41
252.617	0.18
252.833	0.15
253.049	0.15
253.265	0.2
253.481	0.16
253.697	0.16
253.913	0.11
254.129	0.17
254.345	0.14
254.561	0.16
254.777	0.15
254.993	0.22
255.209	0.1
255.425	0.07
255.641	0.13
255.857	0.29
256.073	0.18
256.288	0.05
256.504	0.13
256.72	0.15
256.936	0.37
257.152	0.18
257.367	0.14
257.583	0.24
257.799	0.25
258.015	0.03
258.23	0.08
258.446	0.32
258.662	0.18
258.877	0.1
259.093	0.1
259.309	0.23
259.524	0.2
259.74	0.09
259.955	0.07
260.171	0.17
260.387	0.15
260.602	0.24
260.818	0.19
261.033	0.1
261.249	0.13
261.464	0.1
261.68	0.07
261.895	0.22
262.11	0.2
262.326	0.06
262.541	0.04
262.757	0.23
262.972	0.2
263.187	0.18
263.403	0.16
263.618	0.29
263.833	0.16
264.049	0.14
264.264	0.14
264.479	0.15
264.694	0.26
264.91	0.07
265.125	0.06
265.34	0.19
265.555	0.28
265.77	0.18
265.986	0.12
266.201	0.19
266.416	0.26
266.631	0.12
266.846	0.16
267.061	0.24
267.276	0.21
267.491	0.02
267.706	0.22
267.921	0.15
268.136	0.22
268.351	0.19
268.566	0.05
268.781	0.18
268.996	0.21
269.211	0.17
269.426	0.09
269.641	0.1
269.856	0.23
270.071	0.1
270.285	0.01
270.5	0.2
270.715	0.23
270.93	0.15
271.145	0.12
271.359	0.21
271.574	0.11
271.789	0.14
272.004	0.13
272.218	0.14
272.433	0.26
272.648	0.11
272.862	0.18
273.077	0.16
273.292	0.09
273.506	0.05
273.721	0.11
273.936	0.16
274.15	0.22
274.365	0.13
274.579	0.15
274.794	0.18
275.008	0.18
275.223	0.07
275.437	0.13
275.652	0.24
275.866	0.17
276.081	0.17
276.295	0.15
276.509	0.18
276.724	0.12
276.938	0.17
277.153	0.17
277.367	0.15
277.581	0.06
277.796	0.08
278.01	0.07
278.224	0.18
278.438	0.24
278.653	0.08
278.867	0.09
279.081	0.22
279.295	0.09
279.51	0.17
279.724	0.02
279.938	0.25
280.152	0.21
280.366	0.16
280.58	0.13
280.794	0.24
281.008	0.15
281.222	0.16
281.437	0.27
281.651	0.17
281.865	0.19
282.079	0.12
282.293	-0.01
282.507	0.11
282.721	0.13
282.935	0.15
283.148	0.06
283.362	0.08
283.576	0.09
283.79	0.12
284.004	0.08
284.218	0.2
284.432	0.11
284.646	0.08
284.859	0.12
285.073	0.12
285.287	0.12
285.501	0.11
285.714	0.08
285.928	0.14
286.142	0.15
286.356	0.04
286.569	0.1
286.783	0.19
286.997	0.18
287.21	0.15
287.424	0.15
287.637	0.14
287.851	0.15
288.065	0.21
288.278	0.13
288.492	0.21
288.705	0.09
288.919	0.15
289.132	0.05
289.346	0.18
289.559	0.09
289.773	-0
289.986	0.15
290.2	0.12
290.413	0.14
290.626	0.08
290.84	0.1
291.053	0.13
291.267	0.21
291.48	0.12
291.693	0.11
291.906	0.05
292.12	0.1
292.333	0.09
292.546	0.1
292.76	0.18
292.973	0.12
293.186	0.14
293.399	0.08
293.612	0.19
293.826	0.13
294.039	0.08
294.252	0.1
294.465	0.16
294.678	0.15
294.891	0.12
295.104	0.05
295.317	0.15
295.53	0.11
295.743	0.12
295.956	0.12
296.169	0.2
296.382	0.17
296.595	0.13
296.808	0.04
297.021	0.16
297.234	0.14
297.447	0.11
297.66	0.12
297.873	0.16
298.086	0.16
298.299	0.09
298.511	0.02
298.724	0.09
298.937	0.07
299.15	0.08
299.363	0.11
299.575	0.18
299.788	0.09
300.001	0.1
300.213	0.1
300.426	0.1
300.639	0.09
300.852	0.04
301.064	0.14
301.277	0.23
301.489	0.14
301.702	0.14
301.915	0.12
302.127	0.11
302.34	0.11
302.552	0.15
302.765	0.06
302.977	0.18
303.19	0.08
303.402	0.1
303.615	0.09
303.827	0.1
304.04	0.07
304.252	0.16
304.464	0.08
304.677	0.23
304.889	0.15
305.102	0.1
305.314	0.09
305.526	0.13
305.739	0.13
305.951	0.03
306.163	0.09
306.375	0.19
306.588	0.1
306.8	0.11
307.012	0.06
307.224	0.14
307.436	0.18
307.649	0.03
307.861	0.12
308.073	0.15
308.285	0.05
308.497	0.1
308.709	0.07
308.921	0.11
309.133	0.19
309.346	0.08
309.558	0.09
309.77	0.14
309.982	0.18
310.194	0.16
310.406	0.08
310.617	0.21
310.829	0.12
311.041	0.15
311.253	0.06
311.465	0.08
311.677	0.14
311.889	0.07
312.101	0.09
312.313	0.2
312.524	0.17
312.736	0.08
312.948	0.04
313.16	0.21
313.372	0.14
313.583	0.13
313.795	0.1
314.007	0.04
314.218	0.15
314.43	0.1
314.642	0.07
314.853	0.06
315.065	0.13
315.277	0.13
315.488	0.13
315.7	0.17
315.912	0.11
316.123	0.1
316.335	0.1
316.546	0.21
316.758	0.15
316.969	0.1
317.181	0.1
317.392	0.11
317.604	0.17
317.815	0.06
318.026	0.11
318.238	0.09
318.449	0.12
318.661	0.05
318.872	0.04
319.083	0.09
319.295	0.15
319.506	0.08
319.717	0.16
319.929	0.08
320.14	0.12
320.351	0.13
320.562	0.05
320.774	0.15
320.985	0.14
321.196	0.07
321.407	0.02
321.618	0.12
321.829	0.15
322.041	0.12
322.252	0.11
322.463	0.12
322.674	0.13
322.885	0.1
323.096	0.12
323.307	0.11
323.518	0.09
323.729	0.09
323.94	0.1
324.151	0.1
324.362	0.11
324.573	0.12
324.784	0.07
324.995	0.16
325.206	0.14
325.417	0.08
325.628	0.07
325.838	0.1
326.049	0.12
326.26	0.15
326.471	0.06
326.682	0.14
326.892	0.12
327.103	0.01
327.314	0.13
327.525	0.19
327.735	0.13
327.946	0.13
328.157	0.1
328.368	0.12
328.578	0.08
328.789	0.14
328.999	0.09
329.21	0.09
329.421	0.11
329.631	0.09
329.842	0.06
330.052	0.15
330.263	0.13
330.473	0.16
330.684	0.08
330.894	0.11
331.105	0.15
331.315	0.1
331.526	0.04
331.736	0.19
331.947	0.13
332.157	0.12
332.367	0.07
332.578	0.14
332.788	0.16
332.999	0.17
333.209	0.1
333.419	0.02
333.629	0.11
333.84	0.19
334.05	0.09
334.26	0.19
334.47	0.12
334.681	0.16
334.891	0.08
335.101	0.16
335.311	0.2
335.521	0.14
335.732	0.09
335.942	0.16
336.152	0.16
336.362	0.12
336.572	0.13
336.782	0.15
336.992	0.07
337.202	0.1
337.412	0.1
337.622	0.11
337.832	0.15
338.042	0.16
338.252	0.05
338.462	0.1
338.672	0.1
338.882	0.08
339.092	0.17
339.302	0.16
339.511	0.1
339.721	0.1
339.931	0.07
340.141	0.2
340.351	0.14
340.561	0.13
340.77	0.1
340.98	0.11
341.19	0.13
341.4	0.07
341.609	0.08
341.819	0.06
342.029	0.07
342.238	0.15
342.448	0.08
342.658	0.14
342.867	0.09
343.077	0.13
343.286	0.13
343.496	0.13
343.706	0.16
343.915	0.08
344.125	0.11
344.334	0.15
344.544	0.07
344.753	0.09
344.963	0.09
345.172	0.09
345.381	0.09
345.591	0.06
345.8	0.08
346.01	0.16
346.219	0.13
346.428	-0.05
346.638	0.05
346.847	0.15
347.056	0.19
347.266	0.07
347.475	0.11
347.684	0.14
347.893	0.17
348.103	0.1
348.312	0.07
348.521	0.05
348.73	0.12
348.94	0.12
349.149	0.12
349.358	0.09
349.567	0.08
349.776	0.05
349.985	0.11
350.194	0.16
350.403	0.15
350.612	0.02
350.821	0.11
351.03	0.1
351.239	0.06
351.448	0.11
351.657	0.07
351.866	0.19
352.075	0.11
352.284	0.16
352.493	0.05
352.702	0.13
352.911	0.12
353.12	0.11
353.329	0.11
353.538	0.14
353.746	0.12
353.955	0.08
354.164	0.1
354.373	0.13
354.582	0.12
354.79	0.11
354.999	0.14
355.208	0.09
355.416	0.19
355.625	0.06
355.834	0.08
356.042	0.16
356.251	0.08
356.46	0.08
356.668	0.1
356.877	0.17
357.085	0.17
357.294	0.03
357.503	0.14
357.711	0.1
357.92	0.22
358.128	0.09
358.337	0.1
358.545	0.16
358.754	0.08
358.962	0.15
359.17	0.09
359.379	0.11
359.587	0.13
359.796	0.1
360.004	0.15
360.212	0.12
360.421	0.15
360.629	0.12
360.837	0.12
361.046	0.16
361.254	0.16
361.462	0.11
361.67	0.13
361.879	0.08
362.087	0.15
362.295	0.15
362.503	0.09
362.711	0.07
362.92	0.08
363.128	0.09
363.336	0.08
363.544	0.05
363.752	0.08
363.96	0.06
364.168	0.06
364.376	0.09
364.584	0.12
364.792	0.16
365	0.12
365.208	0.12
365.416	0.12
365.624	0.17
365.832	0.1
366.04	0.11
366.248	0.14
366.456	0.13
366.664	0.11
366.872	0.12
367.079	0.12
367.287	0.1
367.495	0.13
367.703	0.11
367.911	0.1
368.118	0.06
368.326	0.1
368.534	0.04
368.742	0.17
368.949	0.02
369.157	0.05
369.365	0.14
369.572	0.06
369.78	0.08
369.988	0.13
370.195	0.1
370.403	0.17
370.61	0.1
370.818	0.13
371.026	0.16
371.233	0.08
371.441	0.11
371.648	0.06
371.856	0.12
372.063	0.12
372.271	0.09
372.478	0.1
372.685	0.1
372.893	0.13
373.1	0.07
373.308	0.09
373.515	0.17
373.722	0.1
373.93	0.11
374.137	0.13
374.344	0.19
374.552	0.16
374.759	0.14
374.966	0.06
375.173	0.1
375.381	0.16
375.588	0.09
375.795	0.08
376.002	0.09
376.209	0.09
376.417	0.1
376.624	0.14
376.831	0.16
377.038	0.08
377.245	0.06
377.452	0.11
377.659	0.12
377.866	0.11
378.073	0.11
378.28	0.11
378.487	0.15
378.694	0.11
378.901	0.1
379.108	0.13
379.315	0.17
379.522	0.16
379.729	0.11
379.936	0.09
380.143	0.14
380.35	0.14
380.557	0.11
380.763	0.12
380.97	0.09
381.177	0.13
381.384	0.16
381.591	0.07
381.797	0.12
382.004	0.15
382.211	0.11
382.418	0.08
382.624	0.13
382.831	0.15
383.038	0.11
383.244	0.1
383.451	0.13
383.658	0.11
383.864	0.1
384.071	0.07
384.277	0.23
384.484	0.12
384.69	0.14
384.897	0.08
385.103	0.12
385.31	0.08
385.516	0.14
385.723	0.07
385.929	0.11
386.136	0.09
386.342	0.14
386.549	0.06
386.755	0.18
386.961	0.12
387.168	0.04
387.374	0.13
387.58	0.12
387.787	0.13
387.993	0.16
388.199	0.13
388.406	0.09
388.612	0.14
388.818	0.06
389.024	0.09
389.231	0.1
389.437	0.22
389.643	0.18
389.849	0.13
390.055	0.12
390.261	0.11
390.467	0.17
390.674	0.11
390.88	0.12
391.086	0.15
391.292	0.1
391.498	0.2
391.704	0.13
391.91	0.13
392.116	0.09
392.322	0.04
392.528	0.16
392.734	0.13
392.94	0.14
393.146	0.13
393.352	0.13
393.557	0.1
393.763	0.11
393.969	0.18
394.175	0.16
394.381	0.16
394.587	0.04
394.792	0.1
394.998	0.14
395.204	0.16
395.41	0.11
395.615	0.2
395.821	0.17
396.027	0.19
396.233	0.08
396.438	0.13
396.644	0.15
396.85	0.15
397.055	0.11
397.261	0.19
397.466	0.13
397.672	0.14
397.878	0.18
398.083	0.14
398.289	0.14
398.494	0.19
398.7	0.17
398.905	0.09
399.111	0.2
399.316	0.1
399.522	0.13
399.727	0.18
399.932	0.19
400.138	0.08
400.343	0.22
400.549	0.14
400.754	0.16
400.959	0.18
401.165	0.14
401.37	0.19
401.575	0.25
401.78	0.15
401.986	0.13
402.191	0.08
402.396	0.16
402.601	0.19
402.807	0.18
403.012	0.16
403.217	0.22
403.422	0.18
403.627	0.16
403.832	0.16
404.037	0.19
404.243	0.2
404.448	0.17
404.653	0.15
404.858	0.19
405.063	0.21
405.268	0.14
405.473	0.17
405.678	0.12
405.883	0.36
406.088	0.23
406.293	0.09
406.498	0.18
406.703	0.21
406.907	0.2
407.112	0.16
407.317	0.21
407.522	0.27
407.727	0.17
407.932	0.23
408.136	0.3
408.341	0.19
408.546	0.24
408.751	0.23
408.956	0.2
409.16	0.29
409.365	0.26
409.57	0.25
409.774	0.3
409.979	0.27
410.184	0.34
410.388	0.21
410.593	0.3
410.798	0.26
411.002	0.27
411.207	0.34
411.411	0.27
411.616	0.28
411.82	0.29
412.025	0.34
412.229	0.36
412.434	0.39
412.638	0.37
412.843	0.33
413.047	0.42
413.252	0.32
413.456	0.38
413.66	0.44
413.865	0.41
414.069	0.49
414.273	0.43
414.478	0.46
414.682	0.44
414.886	0.44
415.091	0.44
415.295	0.43
415.499	0.54
415.703	0.51
415.908	0.56
416.112	0.47
416.316	0.6
416.52	0.56
416.724	0.58
416.929	0.57
417.133	0.77
417.337	0.65
417.541	0.68
417.745	0.73
417.949	0.79
418.153	0.76
418.357	0.72
418.561	0.9
418.765	0.82
418.969	0.93
419.173	0.93
419.377	0.91
419.581	1.08
419.785	0.99
419.989	0.95
420.193	1
420.397	1.07
420.601	1.19
420.804	1.22
421.008	1.18
421.212	1.3
421.416	1.3
421.62	1.27
421.823	1.3
422.027	1.45
422.231	1.34
422.435	1.37
422.638	1.41
422.842	1.47
423.046	1.45
423.249	1.58
423.453	1.55
423.657	1.62
423.86	1.64
424.064	1.63
424.268	1.79
424.471	1.79
424.675	1.9
424.878	1.94
425.082	1.94
425.285	2.08
425.489	1.98
425.692	2.01
425.896	2.02
426.099	2.21
426.303	2.17
426.506	2.28
426.71	2.35
426.913	2.45
427.116	2.53
427.32	2.57
427.523	2.54
427.726	2.74
427.93	2.68
428.133	2.78
428.336	2.78
428.54	2.88
428.743	3.04
428.946	3.16
429.149	3.13
429.353	3.16
429.556	3.21
429.759	3.15
429.962	3.28
430.165	3.34
430.368	3.16
430.571	3.19
430.775	3.21
430.978	3.19
431.181	3.25
431.384	3.25
431.587	3.26
431.79	3.42
431.993	3.41
432.196	3.52
432.399	3.64
432.602	3.77
432.805	3.8
433.008	3.96
433.211	3.86
433.414	4.04
433.616	4.05
433.819	4.01
434.022	4
434.225	4.17
434.428	4.14
434.631	4.53
434.833	4.22
435.036	4.44
435.239	4.55
435.442	4.48
435.645	4.52
435.847	4.65
436.05	4.77
436.253	4.9
436.455	4.87
436.658	4.79
436.861	4.98
437.063	5.02
437.266	4.97
437.468	5.12
437.671	5.36
437.874	5.38
438.076	5.21
438.279	5.53
438.481	5.47
438.684	5.78
438.886	5.68
439.089	5.75
439.291	5.87
439.494	6
439.696	5.99
439.899	6.33
440.101	6.47
440.303	6.54
440.506	6.93
440.708	6.83
440.91	6.9
441.113	7.02
441.315	7.18
441.517	7.1
441.72	7.29
441.922	7.21
442.124	7.13
442.326	7.42
442.529	7.51
442.731	7.59
442.933	7.74
443.135	7.67
443.337	7.66
443.539	7.9
443.742	7.72
443.944	8.08
444.146	7.91
444.348	7.92
444.55	7.89
444.752	8.05
444.954	8.11
445.156	8.05
445.358	8.2
445.56	8.42
445.762	8.3
445.964	8.52
446.166	8.39
446.368	8.4
446.57	8.41
446.772	8.32
446.974	8.19
447.175	8.38
447.377	8.15
447.579	8.41
447.781	8.22
447.983	8.23
448.184	7.99
448.386	8.31
448.588	7.91
448.79	8.07
448.991	8.2
449.193	8.07
449.395	7.9
449.597	7.66
449.798	7.6
450	7.39
450.202	7.33
450.403	7.41
450.605	7.35
450.806	7.24
451.008	7.05
451.21	7.08
451.411	6.85
451.613	6.44
451.814	6.58
452.016	6.55
452.217	6.21
452.419	6.26
452.62	6.06
452.821	5.97
453.023	5.91
453.224	5.74
453.426	5.53
453.627	5.17
453.828	5.26
454.03	5.13
454.231	5.13
454.432	5.09
454.634	5
454.835	4.81
455.036	4.76
455.238	4.63
455.439	4.57
455.64	4.3
455.841	4.33
456.042	4.33
456.244	4.2
456.445	4.07
456.646	3.83
456.847	3.87
457.048	3.78
457.249	3.88
457.45	3.82
457.651	3.46
457.852	3.46
458.054	3.24
458.255	3.19
458.456	3.21
458.657	3.16
458.858	2.92
459.058	2.92
459.259	3.05
459.46	2.79
459.661	2.79
459.862	2.95
460.063	2.77
460.264	2.77
460.465	2.58
460.666	2.72
460.866	2.49
461.067	2.4
461.268	2.41
461.469	2.41
461.67	2.39
461.87	2.27
462.071	2.36
462.272	2.23
462.473	2.23
462.673	2.34
462.874	2.26
463.075	2.28
463.275	2.21
463.476	2.34
463.676	2.21
463.877	2.24
464.078	2.14
464.278	2.22
464.479	2.13
464.679	2.1
464.88	2.05
465.08	2.08
465.281	1.91
465.481	1.84
465.682	1.85
465.882	1.86
466.083	1.81
466.283	1.8
466.483	1.75
466.684	1.61
466.884	1.59
467.085	1.56
467.285	1.63
467.485	1.54
467.686	1.51
467.886	1.52
468.086	1.5
468.286	1.53
468.487	1.48
468.687	1.42
468.887	1.43
469.087	1.48
469.287	1.43
469.488	1.35
469.688	1.37
469.888	1.39
470.088	1.42
470.288	1.33
470.488	1.29
470.688	1.23
470.888	1.25
471.088	1.1
471.288	1.18
471.488	1.19
471.688	1.26
471.888	1.08
472.088	1.22
472.288	1.18
472.488	1.08
472.688	1.05
472.888	1.15
473.088	1.12
473.288	1.08
473.488	1.01
473.688	1.17
473.887	1.07
474.087	1.05
474.287	0.99
474.487	0.96
474.687	1.07
474.886	0.97
475.086	0.96
475.286	0.96
475.486	0.94
475.685	0.98
475.885	0.93
476.085	1
476.284	0.99
476.484	0.97
476.684	0.94
476.883	1.02
477.083	0.92
477.282	0.87
477.482	0.97
477.681	0.95
477.881	0.88
478.08	0.86
478.28	0.83
478.479	0.89
478.679	0.94
478.878	0.88
479.078	0.88
479.277	0.89
479.477	0.89
479.676	0.93
479.875	0.85
480.075	0.84
480.274	0.88
480.473	0.88
480.673	0.84
480.872	0.91
481.071	0.84
481.271	0.89
481.47	0.85
481.669	0.87
481.868	0.78
482.067	0.81
482.267	0.8
482.466	0.81
482.665	0.8
482.864	0.82
483.063	0.81
483.262	0.87
483.461	0.91
483.661	0.89
483.86	0.88
484.059	0.9
484.258	0.87
484.457	0.87
484.656	0.85
484.855	0.92
485.054	0.81
485.253	0.86
485.452	0.82
485.651	0.87
485.849	0.88
486.048	0.84
486.247	0.87
486.446	0.9
486.645	0.82
486.844	0.89
487.043	0.88
487.241	0.88
487.44	0.85
487.639	0.9
487.838	0.93
488.037	0.89
488.235	1
488.434	0.92
488.633	0.86
488.831	0.96
489.03	0.94
489.229	0.96
489.427	0.92
489.626	0.95
489.825	1.03
490.023	0.99
490.222	0.99
490.42	0.99
490.619	1.02
490.817	1.02
491.016	0.98
491.214	1.08
491.413	1.01
491.611	1.01
491.81	1.03
492.008	1.06
492.207	1.13
492.405	1.11
492.604	1.05
492.802	1.09
493	1.15
493.199	1.11
493.397	1.14
493.595	1.18
493.794	1.15
493.992	1.2
494.19	1.18
494.388	1.2
494.587	1.18
494.785	1.23
494.983	1.17
495.181	1.26
495.379	1.28
495.578	1.31
495.776	1.29
495.974	1.34
496.172	1.32
496.37	1.37
496.568	1.35
496.766	1.38
496.964	1.39
497.162	1.42
497.36	1.38
497.558	1.46
497.756	1.45
497.954	1.45
498.152	1.47
498.35	1.54
498.548	1.47
498.746	1.52
498.944	1.5
499.142	1.55
499.34	1.56
499.538	1.61
499.736	1.51
499.933	1.64
500.131	1.64
500.329	1.69
500.527	1.68
500.725	1.74
500.922	1.72
501.12	1.74
501.318	1.75
501.516	1.76
501.713	1.81
501.911	1.79
502.109	1.77
502.306	1.84
502.504	1.79
502.701	1.83
502.899	1.86
503.097	1.99
503.294	1.89
503.492	1.97
503.689	1.98
503.887	1.97
504.084	2.07
504.282	2.01
504.479	1.95
504.677	2.08
504.874	2.05
505.072	2.05
505.269	2.09
505.466	2.13
505.664	2.17
505.861	2.11
506.059	2.11
506.256	2.16
506.453	2.2
506.651	2.29
506.848	2.28
507.045	2.25
507.242	2.27
507.44	2.23
507.637	2.33
507.834	2.3
508.031	2.38
508.229	2.35
508.426	2.3
508.623	2.38
508.82	2.41
509.017	2.37
509.214	2.4
509.411	2.49
509.608	2.4
509.805	2.5
510.003	2.49
510.2	2.5
510.397	2.55
510.594	2.52
510.791	2.55
510.988	2.54
511.184	2.56
511.381	2.54
511.578	2.58
511.775	2.68
511.972	2.61
512.169	2.62
512.366	2.67
512.563	2.74
512.76	2.72
512.956	2.73
513.153	2.73
513.35	2.7
513.547	2.68
513.744	2.74
513.94	2.71
514.137	2.82
514.334	2.82
514.53	2.82
514.727	2.93
514.924	2.9
515.12	2.87
515.317	2.89
515.514	2.84
515.71	2.83
515.907	2.89
516.103	2.92
516.3	2.92
516.497	2.95
516.693	3.01
516.89	2.97
517.086	2.96
517.283	3.02
517.479	2.93
517.676	3.01
517.872	3.03
518.068	3.04
518.265	3.02
518.461	3.03
518.658	3.05
518.854	3.08
519.05	3.1
519.247	3.13
519.443	3.11
519.639	3.18
519.836	3.13
520.032	3.12
520.228	3.19
520.424	3.17
520.621	3.17
520.817	3.18
521.013	3.16
521.209	3.22
521.405	3.27
521.601	3.2
521.798	3.2
521.994	3.29
522.19	3.19
522.386	3.18
522.582	3.23
522.778	3.29
522.974	3.27
523.17	3.24
523.366	3.25
523.562	3.28
523.758	3.27
523.954	3.17
524.15	3.3
524.346	3.36
524.542	3.32
524.738	3.28
524.934	3.34
525.129	3.39
525.325	3.33
525.521	3.34
525.717	3.45
525.913	3.33
526.109	3.36
526.304	3.4
526.5	3.45
526.696	3.44
526.892	3.38
527.087	3.47
527.283	3.41
527.479	3.45
527.674	3.35
527.87	3.43
528.066	3.43
528.261	3.45
528.457	3.4
528.653	3.46
528.848	3.46
529.044	3.48
529.239	3.45
529.435	3.48
529.63	3.46
529.826	3.47
530.021	3.48
530.217	3.55
530.412	3.46
530.608	3.5
530.803	3.49
530.999	3.48
531.194	3.5
531.389	3.51
531.585	3.45
531.78	3.53
531.975	3.51
532.171	3.58
532.366	3.53
532.561	3.54
532.757	3.5
532.952	3.61
533.147	3.45
533.342	3.53
533.538	3.49
533.733	3.66
533.928	3.49
534.123	3.55
534.318	3.55
534.513	3.53
534.709	3.61
534.904	3.57
535.099	3.53
535.294	3.6
535.489	3.6
535.684	3.59
535.879	3.53
536.074	3.6
536.269	3.57
536.464	3.62
536.659	3.55
536.854	3.6
537.049	3.64
537.244	3.61
537.439	3.62
537.634	3.63
537.828	3.63
538.023	3.64
538.218	3.58
538.413	3.59
538.608	3.6
538.803	3.6
538.997	3.59
539.192	3.64
539.387	3.6
539.582	3.58
539.776	3.6
539.971	3.65
540.166	3.62
540.36	3.59
540.555	3.68
540.75	3.63
540.944	3.68
541.139	3.61
541.334	3.63
541.528	3.69
541.723	3.69
541.917	3.66
542.112	3.63
542.306	3.6
542.501	3.59
542.695	3.66
542.89	3.63
543.084	3.67
543.279	3.62
543.473	3.69
543.668	3.64
543.862	3.59
544.056	3.6
544.251	3.69
544.445	3.66
544.64	3.66
544.834	3.56
545.028	3.51
545.222	3.67
545.417	3.73
545.611	3.69
545.805	3.68
546	3.59
546.194	3.66
546.388	3.65
546.582	3.64
546.776	3.66
546.97	3.64
547.165	3.65
547.359	3.67
547.553	3.59
547.747	3.65
547.941	3.76
548.135	3.63
548.329	3.68
548.523	3.67
548.717	3.68
548.911	3.67
549.105	3.59
549.299	3.7
549.493	3.68
549.687	3.63
549.881	3.72
550.075	3.66
550.269	3.62
550.463	3.72
550.657	3.66
550.85	3.67
551.044	3.66
551.238	3.69
551.432	3.67
551.626	3.67
551.82	3.69
552.013	3.6
552.207	3.73
552.401	3.72
552.594	3.69
552.788	3.62
552.982	3.63
553.176	3.65
553.369	3.78
553.563	3.69
553.756	3.65
553.95	3.68
554.144	3.72
554.337	3.72
554.531	3.64
554.724	3.67
554.918	3.72
555.111	3.67
555.305	3.75
555.498	3.72
555.692	3.79
555.885	3.68
556.079	3.66
556.272	3.64
556.466	3.68
556.659	3.68
556.852	3.66
557.046	3.63
557.239	3.59
557.432	3.65
557.626	3.71
557.819	3.76
558.012	3.68
558.206	3.78
558.399	3.73
558.592	3.63
558.785	3.59
558.979	3.7
559.172	3.67
559.365	3.72
559.558	3.7
559.751	3.64
559.944	3.72
560.138	3.67
560.331	3.68
560.524	3.7
560.717	3.65
560.91	3.65
561.103	3.65
561.296	3.62
561.489	3.73
561.682	3.71
561.875	3.7
562.068	3.76
562.261	3.67
562.454	3.79
562.647	3.63
562.84	3.7
563.032	3.7
563.225	3.62
563.418	3.63
563.611	3.71
563.804	3.7
563.997	3.64
564.19	3.52
564.382	3.67
564.575	3.68
564.768	3.63
564.961	3.68
565.153	3.64
565.346	3.63
565.539	3.7
565.731	3.69
565.924	3.69
566.117	3.75
566.309	3.67
566.502	3.63
566.695	3.66
566.887	3.72
567.08	3.66
567.272	3.73
567.465	3.61
567.657	3.69
567.85	3.64
568.042	3.7
568.235	3.74
568.427	3.59
568.62	3.63
568.812	3.63
569.005	3.67
569.197	3.59
569.389	3.67
569.582	3.64
569.774	3.67
569.966	3.64
570.159	3.58
570.351	3.65
570.543	3.65
570.736	3.61
570.928	3.54
571.12	3.68
571.312	3.6
571.505	3.53
571.697	3.71
571.889	3.63
572.081	3.63
572.273	3.54
572.465	3.7
572.658	3.62
572.85	3.68
573.042	3.66
573.234	3.54
573.426	3.62
573.618	3.58
573.81	3.6
574.002	3.63
574.194	3.62
574.386	3.62
574.578	3.48
574.77	3.61
574.962	3.62
575.154	3.5
575.346	3.53
575.538	3.57
575.729	3.55
575.921	3.6
576.113	3.59
576.305	3.58
576.497	3.61
576.689	3.53
576.88	3.57
577.072	3.63
577.264	3.6
577.456	3.58
577.647	3.59
577.839	3.61
578.031	3.59
578.223	3.54
578.414	3.45
578.606	3.57
578.798	3.58
578.989	3.52
579.181	3.58
579.372	3.59
579.564	3.56
579.755	3.54
579.947	3.52
580.139	3.55
580.33	3.44
580.522	3.54
580.713	3.46
580.905	3.52
581.096	3.62
581.287	3.5
581.479	3.51
581.67	3.56
581.862	3.52
582.053	3.52
582.244	3.4
582.436	3.5
582.627	3.5
582.818	3.46
583.01	3.45
583.201	3.54
583.392	3.46
583.583	3.45
583.775	3.38
583.966	3.46
584.157	3.47
584.348	3.53
584.54	3.41
584.731	3.47
584.922	3.41
585.113	3.39
585.304	3.46
585.495	3.48
585.686	3.46
585.877	3.51
586.068	3.51
586.259	3.42
586.45	3.44
586.641	3.37
586.832	3.43
587.023	3.42
587.214	3.41
587.405	3.44
587.596	3.33
587.787	3.41
587.978	3.42
588.169	3.38
588.36	3.35
588.551	3.42
588.742	3.37
588.932	3.44
589.123	3.26
589.314	3.44
589.505	3.35
589.696	3.37
589.886	3.38
590.077	3.33
590.268	3.35
590.458	3.27
590.649	3.26
590.84	3.36
591.03	3.31
591.221	3.28
591.412	3.21
591.602	3.41
591.793	3.32
591.984	3.33
592.174	3.28
592.365	3.37
592.555	3.2
592.746	3.29
592.936	3.29
593.127	3.33
593.317	3.28
593.508	3.3
593.698	3.25
593.889	3.25
594.079	3.23
594.269	3.21
594.46	3.18
594.65	3.24
594.84	3.25
595.031	3.16
595.221	3.15
595.411	3.18
595.602	3.22
595.792	3.19
595.982	3.13
596.172	3.25
596.363	3.12
596.553	3.18
596.743	3.19
596.933	3.16
597.123	3.11
597.314	3.09
597.504	3.08
597.694	3.21
597.884	3.09
598.074	3.13
598.264	3.13
598.454	3.13
598.644	3.05
598.834	3.08
599.024	3
599.214	3.04
599.404	3.11
599.594	3.11
599.784	3.02
599.974	3.12
600.164	3.1
600.354	3
600.544	2.98
600.734	3.08
600.924	3.05
601.114	2.96
601.303	3
601.493	2.96
601.683	2.97
601.873	3.02
602.063	2.93
602.252	2.99
602.442	2.9
602.632	2.91
602.821	2.93
603.011	2.93
603.201	2.91
603.39	2.92
603.58	2.86
603.77	2.92
603.959	2.92
604.149	2.85
604.339	2.89
604.528	2.97
604.718	2.92
604.907	2.86
605.097	2.83
605.286	2.84
605.476	2.83
605.665	2.9
605.855	2.81
606.044	2.89
606.234	2.9
606.423	2.79
606.612	2.8
606.802	2.78
606.991	2.8
607.181	2.85
607.37	2.77
607.559	2.67
607.749	2.74
607.938	2.76
608.127	2.77
608.316	2.77
608.506	2.68
608.695	2.74
608.884	2.74
609.073	2.71
609.263	2.76
609.452	2.75
609.641	2.65
609.83	2.67
610.019	2.7
610.208	2.62
610.397	2.66
610.586	2.7
610.775	2.61
610.965	2.67
611.154	2.57
611.343	2.67
611.532	2.6
611.721	2.63
611.91	2.6
612.099	2.64
612.287	2.6
612.476	2.53
612.665	2.61
612.854	2.58
613.043	2.62
613.232	2.6
613.421	2.51
613.61	2.55
613.798	2.5
613.987	2.56
614.176	2.48
614.365	2.49
614.554	2.55
614.742	2.56
614.931	2.44
615.12	2.54
615.309	2.48
615.497	2.47
615.686	2.4
615.875	2.45
616.063	2.38
616.252	2.39
616.44	2.43
616.629	2.4
616.818	2.38
617.006	2.37
617.195	2.41
617.383	2.38
617.572	2.34
617.76	2.4
617.949	2.38
618.137	2.36
618.326	2.38
618.514	2.27
618.703	2.24
618.891	2.39
619.079	2.28
619.268	2.34
619.456	2.21
619.644	2.36
619.833	2.27
620.021	2.28
620.209	2.22
620.398	2.26
620.586	2.2
620.774	2.31
620.962	2.22
621.151	2.34
621.339	2.23
621.527	2.18
621.715	2.15
621.903	2.2
622.092	2.12
622.28	2.26
622.468	2.13
622.656	2.19
622.844	2.18
623.032	2.14
623.22	2.06
623.408	2.21
623.596	2.15
623.784	2.2
623.972	2.11
624.16	2.13
624.348	2.12
624.536	2.14
624.724	2.09
624.912	2.11
625.1	2.13
625.288	2.08
625.476	2.01
625.664	2.08
625.851	2.03
626.039	2.08
626.227	2
626.415	2.06
626.603	1.97
626.79	2.08
626.978	2
627.166	2.09
627.354	2
627.541	1.94
627.729	1.91
627.917	2.07
628.104	2.03
628.292	1.95
628.48	1.98
628.667	1.91
628.855	1.97
629.042	2.01
629.23	1.89
629.418	1.91
629.605	1.92
629.793	1.9
629.98	1.92
630.168	1.84
630.355	1.85
630.543	1.9
630.73	1.82
630.917	1.85
631.105	1.93
631.292	1.85
631.48	1.85
631.667	1.89
631.854	1.82
632.042	1.79
632.229	1.72
632.416	1.81
632.604	1.78
632.791	1.72
632.978	1.82
633.165	1.78
633.353	1.81
633.54	1.85
633.727	1.72
633.914	1.68
634.101	1.65
634.289	1.82
634.476	1.67
634.663	1.7
634.85	1.69
635.037	1.65
635.224	1.63
635.411	1.73
635.598	1.69
635.785	1.7
635.972	1.65
636.159	1.72
636.346	1.6
636.533	1.6
636.72	1.6
636.907	1.58
637.094	1.6
637.281	1.55
637.468	1.56
637.655	1.55
637.842	1.57
638.029	1.58
638.215	1.6
638.402	1.59
638.589	1.52
638.776	1.59
638.963	1.52
639.149	1.57
639.336	1.61
639.523	1.53
639.709	1.51
639.896	1.49
640.083	1.51
640.27	1.54
640.456	1.47
640.643	1.52
640.829	1.43
641.016	1.46
641.203	1.43
641.389	1.52
641.576	1.46
641.762	1.43
641.949	1.43
642.135	1.48
642.322	1.42
642.508	1.38
642.695	1.44
642.881	1.43
643.068	1.33
643.254	1.39
643.441	1.45
643.627	1.42
643.813	1.36
644	1.45
644.186	1.29
644.372	1.33
644.559	1.41
644.745	1.36
644.931	1.33
645.118	1.31
645.304	1.34
645.49	1.34
645.676	1.32
645.862	1.3
646.049	1.37
646.235	1.33
646.421	1.36
646.607	1.35
646.793	1.3
646.979	1.22
647.165	1.29
647.352	1.27
647.538	1.29
647.724	1.25
647.91	1.23
648.096	1.24
648.282	1.28
648.468	1.2
648.654	1.27
648.84	1.29
649.026	1.21
649.212	1.2
649.397	1.16
649.583	1.2
649.769	1.22
649.955	1.17
650.141	1.22
650.327	1.22
650.513	1.16
650.698	1.21
650.884	1.11
651.07	1.21
651.256	1.17
651.442	1.15
651.627	1.11
651.813	1.16
651.999	1.09
652.184	1.14
652.37	1.15
652.556	1.13
652.741	1.15
652.927	1.02
653.113	1.07
653.298	1.11
653.484	1.1
653.669	1.03
653.855	1.03
654.04	1.1
654.226	1.08
654.412	1.06
654.597	1.01
654.782	1.07
654.968	1.06
655.153	1.09
655.339	1.01
655.524	1.02
655.71	1.06
655.895	1.06
656.08	1.03
656.266	1.1
656.451	1.03
656.636	0.93
656.822	0.99
657.007	0.97
657.192	0.96
657.378	1.01
657.563	0.99
657.748	1
657.933	0.96
658.118	0.93
658.304	0.97
658.489	1.01
658.674	0.92
658.859	0.92
659.044	0.93
659.229	0.93
659.414	0.95
659.599	0.94
659.785	0.91
659.97	0.93
660.155	0.93
660.34	0.94
660.525	0.91
660.71	0.87
660.895	0.97
661.08	0.93
661.264	0.85
661.449	0.96
661.634	0.91
661.819	0.88
662.004	0.88
662.189	0.79
662.374	0.87
662.559	0.82
662.743	0.8
662.928	0.86
663.113	0.83
663.298	0.78
663.483	0.83
663.667	0.85
663.852	0.79
664.037	0.9
664.221	0.82
664.406	0.88
664.591	0.85
664.775	0.85
664.96	0.78
665.145	0.79
665.329	0.85
665.514	0.77
665.698	0.79
665.883	0.72
666.068	0.84
666.252	0.78
666.437	0.76
666.621	0.76
666.806	0.84
666.99	0.78
667.174	0.71
667.359	0.81
667.543	0.71
667.728	0.8
667.912	0.64
668.096	0.81
668.281	0.72
668.465	0.76
668.649	0.74
668.834	0.69
669.018	0.77
669.202	0.7
669.387	0.65
669.571	0.78
669.755	0.65
669.939	0.74
670.124	0.69
670.308	0.73
670.492	0.75
670.676	0.75
670.86	0.71
671.044	0.65
671.228	0.75
671.413	0.67
671.597	0.67
671.781	0.66
671.965	0.68
672.149	0.72
672.333	0.67
672.517	0.66
672.701	0.69
672.885	0.62
673.069	0.62
673.253	0.72
673.437	0.63
673.621	0.57
673.804	0.66
673.988	0.66
674.172	0.66
674.356	0.6
674.54	0.64
674.724	0.73
674.908	0.61
675.091	0.71
675.275	0.63
675.459	0.71
675.643	0.7
675.826	0.64
676.01	0.65
676.194	0.62
676.377	0.67
676.561	0.64
676.745	0.62
676.928	0.65
677.112	0.66
677.296	0.57
677.479	0.58
677.663	0.55
677.846	0.64
678.03	0.63
678.213	0.58
678.397	0.59
678.58	0.55
678.764	0.58
678.947	0.49
679.131	0.57
679.314	0.63
679.498	0.55
679.681	0.57
679.865	0.62
680.048	0.56
680.231	0.55
680.415	0.54
680.598	0.59
680.781	0.55
680.965	0.53
681.148	0.6
681.331	0.52
681.514	0.54
681.698	0.5
681.881	0.53
682.064	0.54
682.247	0.51
682.43	0.46
682.614	0.52
682.797	0.56
682.98	0.57
683.163	0.53
683.346	0.53
683.529	0.48
683.712	0.46
683.895	0.54
684.078	0.48
684.261	0.46
684.444	0.55
684.627	0.55
684.81	0.46
684.993	0.5
685.176	0.51
685.359	0.43
685.542	0.49
685.725	0.54
685.908	0.51
686.091	0.47
686.274	0.53
686.457	0.51
686.639	0.5
686.822	0.53
687.005	0.48
687.188	0.46
687.371	0.55
687.553	0.52
687.736	0.51
687.919	0.55
688.102	0.54
688.284	0.47
688.467	0.48
688.65	0.43
688.832	0.38
689.015	0.42
689.197	0.38
689.38	0.55
689.563	0.56
689.745	0.37
689.928	0.45
690.11	0.53
690.293	0.46
690.475	0.34
690.658	0.5
690.84	0.45
691.023	0.41
691.205	0.39
691.388	0.46
691.57	0.5
691.752	0.51
691.935	0.36
692.117	0.42
692.3	0.41
692.482	0.4
692.664	0.39
692.847	0.44
693.029	0.47
693.211	0.44
693.393	0.34
693.576	0.38
693.758	0.41
693.94	0.4
694.122	0.34
694.304	0.39
694.487	0.36
694.669	0.44
694.851	0.33
695.033	0.38
695.215	0.37
695.397	0.3
695.579	0.43
695.761	0.39
695.943	0.35
696.125	0.53
696.308	0.39
696.49	0.26
696.671	0.47
696.853	0.34
697.035	0.54
697.217	0.32
697.399	0.41
697.581	0.31
697.763	0.38
697.945	0.35
698.127	0.37
698.309	0.45
698.491	0.35
698.672	0.39
698.854	0.4
699.036	0.45
699.218	0.37
699.399	0.44
699.581	0.41
699.763	0.34
699.945	0.35
700.126	0.32
700.308	0.34
700.49	0.34
700.671	0.21
700.853	0.28
701.035	0.28
701.216	0.38
701.398	0.29
701.579	0.31
701.761	0.44
701.943	0.3
702.124	0.3
702.306	0.35
702.487	0.4
702.669	0.35
702.85	0.3
703.031	0.29
703.213	0.44
703.394	0.42
703.576	0.29
703.757	0.4
703.938	0.39
704.12	0.48
704.301	0.29
704.483	0.29
704.664	0.37
704.845	0.4
705.026	0.35
705.208	0.32
705.389	0.33
705.57	0.36
705.751	0.33
705.933	0.3
706.114	0.38
706.295	0.31
706.476	0.26
706.657	0.4
706.838	0.3
707.02	0.37
707.201	0.33
707.382	0.23
707.563	0.41
707.744	0.26
707.925	0.28
708.106	0.25
708.287	0.32
708.468	0.44
708.649	0.28
708.83	0.29
709.011	0.28
709.192	0.41
709.373	0.27
709.554	0.22
709.734	0.37
709.915	0.34
710.096	0.26
710.277	0.21
710.458	0.32
710.639	0.33
710.819	0.21
711	0.28
711.181	0.34
711.362	0.37
711.542	0.33
711.723	0.28
711.904	0.34
712.085	0.3
712.265	0.28
712.446	0.19
712.627	0.29
712.807	0.3
712.988	0.28
713.168	0.11
713.349	0.32
713.53	0.17
713.71	0.22
713.891	0.2
714.071	0.29
714.252	0.21
714.432	0.27
714.613	0.14
714.793	0.28
714.974	0.28
715.154	0.32
715.334	0.22
715.515	0.44
715.695	0.23
715.876	0.22
716.056	0.2
716.236	0.24
716.417	0.25
716.597	0.16
716.777	0.46
716.957	0.22
717.138	0.16
717.318	0.23
717.498	0.19
717.678	0.29
717.859	0.3
718.039	0.18
718.219	0.24
718.399	0.27
718.579	0.15
718.759	0.19
718.939	0.27
719.12	0.34
719.3	0.25
719.48	0.1
719.66	0.14
719.84	0.3
720.02	0.2
720.2	0.17
720.38	0.22
720.56	0.34
720.74	0.11
720.92	0.28
721.1	0.29
721.279	0.32
721.459	0.21
721.639	0.15
721.819	0.24
721.999	0.19
722.179	0.21
722.359	0.1
722.538	0.18
722.718	0.28
722.898	0.19
723.078	0.14
723.257	0.24
723.437	0.21
723.617	0.29
723.797	0.2
723.976	0.18
724.156	0.34
724.336	0.32
724.515	0.38
724.695	0.04
724.874	0.26
725.054	0.29
725.234	0.19
725.413	0.2
725.593	0.22
725.772	0.27
725.952	0.11
726.131	0.23
726.311	0.24
726.49	0.23
726.67	0.18
726.849	0.19
727.028	0.23
727.208	0.3
727.387	0.24
727.567	0.1
727.746	0.15
727.925	0.13
728.105	0.08
728.284	0.22
728.463	0.22
728.643	0.26
728.822	0.16
729.001	0.13
729.18	0.24
729.359	0.39
729.539	0.2
729.718	0.15
729.897	0.24
730.076	0.19
730.255	0.14
730.434	0.23
730.614	0.21
730.793	0.28
730.972	0.12
731.151	0.24
731.33	0.37
731.509	0.18
731.688	0.18
731.867	0.24
732.046	0.08
732.225	0.35
732.404	0.21
732.583	0.09
732.762	0.23
732.941	0.24
733.12	0.26
733.298	0.2
733.477	0.37
733.656	0.25
733.835	0.1
734.014	0.32
734.193	0.23
734.371	0.35
734.55	0.22
734.729	0.1
734.908	0.21
735.086	0.23
735.265	0.28
735.444	-0.01
735.623	0.09
735.801	0.09
735.98	0.16
736.159	0.23
736.337	0.26
736.516	0.28
736.694	0.2
736.873	0.14
737.052	0.4
737.23	0.26
737.409	0.25
737.587	0.42
737.766	0.07
737.944	0.12
738.123	0.23
738.301	0.21
738.479	0.25
738.658	0.18
738.836	0.06
739.015	0.29
739.193	0.34
739.371	0.05
739.55	0.24
739.728	0.04
739.906	0.36
740.085	0.41
740.263	0.27
740.441	0.11
740.62	0.42
740.798	0.32
740.976	0.15
741.154	0.05
741.332	0.34
741.511	0.18
741.689	0.24
741.867	0.22
742.045	0.16
742.223	0.25
742.401	0.1
742.579	0.13
742.757	0.14
742.935	0.11
743.114	0.2
743.292	0.15
743.47	0.23
743.648	0.17
743.826	0.16
744.004	0.23
744.181	0.35
744.359	0.06
744.537	0.16
744.715	0.15
744.893	0.21
745.071	0.17
745.249	0.11
745.427	0.17
745.605	0.28
745.782	0.18
745.96	0.35
746.138	0.18
746.316	0.26
746.493	0.1
746.671	0.24
746.849	0.13
747.027	0.3
747.204	0.01
747.382	0.27
747.56	0.13
747.737	0.18
747.915	0.22
748.093	0.19
748.27	0.08
748.448	0.23
748.625	0.03
748.803	0.14
748.98	0.12
749.158	0.21
749.335	0.25
749.513	0.23
749.69	0.15
749.868	0.08
750.045	0.13
750.223	0.13
750.4	0
750.578	0.38
750.755	0.1
750.932	0.05
751.11	0.33
751.287	-0.01
751.464	0.29
751.642	0.11
751.819	0.24
751.996	0.21
752.173	0.12
752.351	0.12
752.528	0.2
752.705	0.09
752.882	0.02
753.06	0.2
753.237	0.18
753.414	0.32
753.591	0.35
753.768	0.22
753.945	0.08
754.122	0.12
754.299	0.28
754.476	0.01
754.654	0.2
754.831	0.23
755.008	0.26
755.185	0.13
755.362	0.05
755.539	0.2
755.716	0.05
755.892	0.13
756.069	0.06
756.246	0.14
756.423	0.16
756.6	0.35
756.777	0.12
756.954	0.24
757.131	0.12
757.307	0.03
757.484	0.03
757.661	0.18
757.838	0.35
758.015	0.1
758.191	0.26
758.368	0.15
758.545	0.43
758.721	0.32
758.898	0.03
759.075	0.26
759.251	0.16
759.428	0.19
759.605	0.01
759.781	0.2
759.958	0.22
760.134	0.23
760.311	0.2
760.488	0.39
760.664	0.24
760.841	0.06
761.017	-0.09
761.194	0.19
761.37	0.27
761.547	0.05
761.723	0.06
761.899	0.3
762.076	0.09
762.252	0.13
762.429	0.11
762.605	0.29
762.781	0.16
762.958	0.35
763.134	0.2
763.31	0.2
763.486	0.25
763.663	0.05
763.839	0.2
764.015	0.04
764.191	0.01
764.368	0.14
764.544	-0.01
764.72	0.2
764.896	0.15
765.072	0.18
765.248	0.19
765.425	0.03
765.601	0.12
765.777	0.13
765.953	-0.08
766.129	0.07
766.305	-0.01
766.481	0.19
766.657	0.23
766.833	0.35
767.009	0
767.185	0.15
767.361	0.13
767.537	0.02
767.713	0.3
767.889	0.09
768.065	0.18
768.24	0.21
768.416	0.26
768.592	0.14
768.768	0.2
768.944	0.02
769.12	0.07
769.295	0.18
769.471	0.09
769.647	0.15
769.823	0.35
769.998	0.15
770.174	0.06
770.35	0.45
770.525	0.44
770.701	0.24
770.877	0.16
771.052	0
771.228	0.29
771.403	0.21
771.579	0.22
771.755	0.39
771.93	0.13
772.106	0.09
772.281	0.12
772.457	0.1
772.632	0.27
772.808	-0.16
772.983	0
773.159	-0.02
773.334	0.3
773.509	0.24
773.685	0.05
773.86	0.48
774.036	0.32
774.211	0.2
774.386	0.22
774.562	0.05
774.737	0.34
774.912	0.09
775.087	0.37
775.263	0.22
775.438	0.39
775.613	0.1
775.788	-0.04
775.964	0.38
776.139	0.68
776.314	-0.03
776.489	0.29
776.664	0.16
776.839	0.02
777.014	0.26
777.19	0.22
777.365	0.48
777.54	0.42
777.715	0.15
777.89	0.07
778.065	0.03
778.24	0.21
778.415	0.22
778.59	-0.05
778.765	0.1
778.94	0.29
779.115	0.15
779.289	0.12
779.464	0.11
779.639	0.08
779.814	-0.08
779.989	-0.18
780.164	0.36
780.339	0.33
780.513	0.1
780.688	0.05
780.863	0.32
781.038	0.46
781.212	0.13
781.387	0.19
781.562	0.54
781.737	0.08
781.911	0.29
782.086	-0.03
782.261	0.13
782.435	0.33
782.61	0.21
782.784	0.14
782.959	0.39
783.134	0.14
783.308	0.05
783.483	0.18
783.657	0.41
783.832	0.37
784.006	-0.18
784.181	0.07
784.355	0.45
784.53	-0.1
784.704	0.06
784.878	0.42
785.053	0.28
785.227	0.4
785.402	0.58
785.576	0.06
785.75	0.09
785.925	0.05
786.099	0.12
786.273	0.35
786.448	0.26
786.622	0.29
786.796	0.17
786.97	0.23
787.145	0.85
787.319	-0.26
787.493	0.09
787.667	-0.07
787.841	0.22
788.015	0.42
788.19	0.1
788.364	0.13
788.538	0.17
788.712	0.26
788.886	0.15
789.06	0.21
789.234	0.35
789.408	-0.05
789.582	0.17
789.756	0.32
789.93	0.03
790.104	0.04
790.278	0.16
790.452	-0.01
790.626	0.29
790.8	0.11
790.973	0.44
791.147	0.26
791.321	0.48
791.495	0.5
791.669	0.27
791.843	0.36
792.016	0.12
792.19	0.65
792.364	-0.06
792.538	0.58
792.711	0.6
792.885	0.02
793.059	-0.02
793.233	0.07
793.406	0.45
793.58	-0.05
793.754	0.35
793.927	0.21
794.101	0.62
794.274	0.18
794.448	0.55
794.622	0.01
794.795	0.75
794.969	-0.06
795.142	0.47
795.316	0.15
795.489	-0.11
795.663	0.47
795.836	0.25
796.009	-0.01
796.183	0.66
796.356	0.32
796.53	0.37
796.703	-0.01
796.876	0.75
797.05	0.33
797.223	0.31
797.396	0.22
797.57	0.25
797.743	0.81
797.916	0.26
798.09	0.06
798.263	0.53
798.436	0.44
798.609	0.15
798.782	0.11
798.956	0.18
799.129	0.11
799.302	0.28
799.475	0.23
799.648	0.03
799.821	0.2
799.994	0.31
800.167	-0.2
800.34	0.14
800.514	0.15
800.687	0.15
800.86	-0.04
801.033	0.2
801.206	0.33
801.379	-0.02
801.551	0.55
801.724	0.19
801.897	0.42
802.07	0.07
802.243	-0.41
802.416	0.43
802.589	0.15
802.762	0.57
802.935	0.19
803.107	0.47
803.28	0.81
803.453	0.56
803.626	0.07
803.798	0.35
803.971	0.18
804.144	0.44
804.317	0.42
804.489	0.26
804.662	0.02
804.835	0.27
805.007	0.03
805.18	0.73
805.353	0.04
805.525	0.09
805.698	-0.21
805.87	0.5
806.043	0.36
806.215	-0.04
806.388	0.05
806.56	0.46
806.733	0.73
806.905	0.46
807.078	-0.06
807.25	0.2
807.423	0.56
807.595	0.31
807.768	0.16
807.94	0.84
808.112	0.55
808.285	0.17
808.457	0.12
808.629	0.2
808.802	0.37
808.974	0.02
809.146	0.21
809.318	0.14
809.491	0.21
809.663	0.78
809.835	0.44
810.007	0.42
810.18	0.15
810.352	-0.15
810.524	0.06
810.696	0.44
810.868	0.46
811.04	0.01
811.212	0.39
811.384	0.58
811.556	0.46
811.728	0.04
811.901	0.76
812.073	0.3
812.245	0.34
812.417	0.26
812.589	-0.35
812.76	0.59
812.932	0.64
813.104	0.49
813.276	0.12
813.448	0.87
813.62	0.07
813.792	0.33
813.964	0.07
814.136	0.26
814.307	0
814.479	0.12
814.651	0.11
814.823	0.7
814.995	0.23
815.166	0.23
815.338	0.08
815.51	0.24
815.681	1.11
815.853	0.3
816.025	0.31
816.196	0.93
816.368	0.94
816.54	-0.48
816.711	-0.17
816.883	0.81
817.054	1.25
817.226	-0.58
817.398	0.67
817.569	-0.09
817.741	0.59
817.912	0.12
818.084	0.08
818.255	0.69
818.426	-0.06
818.598	0.11
818.769	0.19
818.941	0.26
819.112	1.09
819.283	0.52
819.455	0.08
819.626	0.21
819.798	0.14
819.969	0.39
820.14	0.01
820.311	0.21
820.483	0.37
820.654	0.34
820.825	0.1
820.996	0.11
821.168	-0.1
821.339	0.31
821.51	0.07
821.681	0.2
821.852	0.39
822.023	-0.35
822.195	-0.07
822.366	0.52
822.537	0.1
822.708	0.69
822.879	-0.08
823.05	0.28
823.221	-0.12
823.392	0.89
823.563	0.28
823.734	0.75
823.905	0.36
824.076	-0.49
824.247	-0.25
824.418	0.37
824.589	1.28
824.759	0.14
824.93	-0.32
825.101	-0.38
825.272	0.66
825.443	0.81
825.614	0.8
825.784	-0.67
825.955	1.28
826.126	0.69
826.297	0.29
826.467	1.16
826.638	0.94
826.809	-0.29
826.98	0.11
827.15	0.54
827.321	0.17
827.492	0.74
827.662	1.13
827.833	1.46
828.003	0.45
828.174	-0.12
828.345	-0.22
828.515	1.26
828.686	1.26
828.856	0.71
829.027	0.65
829.197	0.17
829.368	0.8
829.538	-0.22
829.709	0.34
829.879	0.83
830.049	0.2
830.22	-0.04
830.39	0.17
830.56	1.06
830.731	0.26
830.901	-0.37
831.072	0.2
831.242	0.25
831.412	0.41
831.582	0.24
831.753	-0.89
831.923	0.75
832.093	0.6
832.263	0.02
832.434	-0.08
832.604	-0.06
832.774	0.3
832.944	0.37
833.114	-0.4
833.284	0.65
833.454	0.05
833.624	0.54
833.795	-0.01
833.965	0.68
834.135	0.58
834.305	-0.78
834.475	-0.27
834.645	0.29
834.815	0.25
834.985	-0.18
835.155	0.03
835.325	0.53
835.494	0.38
835.664	0.66
835.834	-0.44
836.004	0.49
836.174	0.78
836.344	0.48
836.514	-0.6
836.684	0.49
836.853	0.43
837.023	0.25
837.193	0.75
837.363	0.9
837.532	1.14
837.702	0.29
837.872	-0.14
838.041	1.09
838.211	1.85
838.381	-0.21
838.55	0.06
838.72	2.13
838.89	1.73
839.059	0.9
839.229	-0.45
839.398	2.36
839.568	0.51
839.738	0.5
839.907	2.05
840.077	0.82
840.246	-0.02
840.416	0.22
840.585	-0.48
840.755	1.32
840.924	0.77
841.093	-0.26
841.263	-0.13
841.432	0.39
841.602	0.04
841.771	0.59
841.94	0.41
842.11	2.03
842.279	2.03
842.448	0.15
842.617	-0.34
842.787	2.51
842.956	-0.08
843.125	-0.29
843.294	0.66
843.464	1.14
843.633	0.28
843.802	-0.02
843.971	0.54
844.14	0.6
844.309	0.97
844.479	-0.75
844.648	-0.25
844.817	-0.44
844.986	0.58
845.155	-0.31
845.324	-0.34
845.493	0.63
845.662	-0.1
845.831	1.46
846	0.91
846.169	0.2
846.338	1.16
846.507	1.6
846.676	0.6
846.844	0.13
847.013	1.39
847.182	1.39
847.351	0.05
847.52	0.6
847.689	0.94
847.858	0.73
848.026	-0.91
848.195	0.75
848.364	1.11
848.533	-0.26
848.701	0.16
848.87	0.41
849.039	1.53
849.207	1.1
849.376	1.61
849.545	1.38
849.713	0.7
849.882	-0.27
850.051	0.54
850.219	0.55
850.388	1.39
850.556	-0.36
850.725	-0.21
850.893	0.06
851.062	-0.04
851.23	1.15
851.399	-1.17
851.567	0.38
851.736	0.3
851.904	-1.4
852.073	0.37
852.241	0.7
852.41	1.27
852.578	0.52
852.746	0.08
852.915	1.24
853.083	0.59
853.251	0
853.42	0.09
853.588	-0.26
853.756	1.84
853.924	0.57
854.093	0.3
854.261	-0.28
854.429	-1.11
854.597	1.29
854.765	0.12
854.934	1.36
855.102	1.37
855.27	0.2
855.438	1.08
855.606	2.25
855.774	2.17
855.942	-1.52
856.11	-1.5
856.278	1.53
856.446	1.63
856.614	0.69
856.782	0.47
856.95	1.83
857.118	0.83
857.286	1.42
857.454	-0.26
857.622	1.77
857.79	1.75
857.958	-0.34
858.126	0.14
858.294	-1.05
858.462	0.86
858.629	0.06
858.797	0.01
858.965	0.84
859.133	0.18
859.301	0.36
859.468	2.17
859.636	-0.56
859.804	3.02
859.971	1.32
860.139	-0.06
860.307	1.05
860.474	0.69
860.642	-0.64
860.81	-0.17
860.977	1.03
861.145	2.25
861.313	-0.99
861.48	0.05
861.648	2.06
861.815	0.25
861.983	-0.18
862.15	0.05
862.318	1.34
862.485	1.59
862.653	0.21
862.82	0.44
862.988	1.91
863.155	1.83
863.322	-0.93
863.49	-0.12
863.657	-0.9
863.824	3.01
863.992	1.73
864.159	1.36
864.326	0.83
864.494	-0.43
864.661	3.48
864.828	-0.28
864.996	3.79
865.163	1.13
865.33	-0.06
865.497	-1.96
865.664	-0.24
865.832	-1.43
865.999	0.86
866.166	-0.4
866.333	-0.19
866.5	0
866.667	0.35
866.834	0.63
867.001	2.94
867.168	-1.84
867.335	0.36
867.502	-0.75
867.669	0.02
867.836	2.8
868.003	-0.38
868.17	3.11
868.337	0.76
868.504	3.33
868.671	-0.8
868.838	0.63
869.005	1.31
869.172	2.45
869.339	1.22
869.505	0.57
869.672	1.95
869.839	2.13
870.006	0.46
870.173	-1.17
870.339	1.44
870.506	4.17
870.673	-1.01
870.84	0.32
871.006	0.97
871.173	1.07
871.34	1.02
871.506	-0.03
871.673	0.78
871.839	-0.99
872.006	1.95
872.173	0.26
872.339	0.45
872.506	0.85
872.672	0.08
872.839	-0.95
873.005	0.83
873.172	3.8
873.338	1.75
873.505	0.34
873.671	2.16
873.838	2.61
874.004	-0.42
874.171	0.17
874.337	1.29
874.503	2.2
874.67	-0.1
874.836	0.42
875.002	3.54
875.169	3.23
875.335	0.25
875.501	0.81
875.668	3.03
875.834	2.96
876	-0.8
876.166	2.59
876.332	2.44
876.499	3.2
876.665	0.58
876.831	1.02
876.997	3.39
877.163	1.12
877.329	-2.47
877.495	0
877.662	2.09
877.828	2.11
877.994	1.81
878.16	-2.96
878.326	-0.53
878.492	1.48
878.658	1.19
878.824	0.95
878.99	2.66
879.156	0.49
879.322	4.73
879.487	0.67
879.653	0.04
879.819	1.72
879.985	-1.23
880.151	2.63
880.317	1.98
880.483	0.62
880.648	3.42
880.814	-2.09
880.98	1.46
881.146	-1.39
881.312	-1.09
881.477	1.41
881.643	1.04
881.809	2.54
881.974	0.89
882.14	-0.92
882.306	0.13
882.471	4.73
882.637	0.04
882.803	1.18
882.968	3.2
883.134	4.83
883.299	1.14
883.465	0.38
883.63	4.01
883.796	0.37
883.961	3.9
884.127	0.67
884.292	-1.95
884.458	-1.31
884.623	-1.31
